time,sample,AF3,T7,Pz,T8,AF4,marker_hardware
1774430693.2835,74,4265.641,4294.872,4164.615,4145.641,4194.359,450.0
1774430693.2913,75,4284.103,4270.769,4154.872,4133.846,4189.231,16187.0
1774430693.299,76,4283.077,4321.026,4147.179,4150.769,4223.59,450.0
1774430693.3069,77,4263.077,4322.051,4170.256,4160.513,4222.051,450.0
1774430693.3148,78,4276.41,4274.872,4194.872,4155.897,4214.872,450.0
1774430693.3227,79,4302.051,4267.179,4182.051,4173.333,4246.154,16187.0
1774430693.3305,80,4302.051,4286.667,4171.282,4180.513,4246.154,450.0
1774430693.3384,81,4285.641,4296.41,4185.641,4156.923,4223.59,450.0
1774430693.3462,82,4290.256,4274.359,4176.41,4155.897,4243.59,450.0
1774430693.3541,83,4301.026,4269.231,4154.872,4177.436,4265.641,16187.0
1774430693.3619,84,4272.821,4306.667,4169.231,4174.872,4253.333,450.0
1774430693.3699,85,4247.179,4305.128,4192.821,4154.872,4226.154,450.0
1774430693.3777,86,4262.564,4260.513,4183.59,4142.564,4201.026,450.0
1774430693.3856,87,4280.513,4268.718,4167.179,4146.154,4217.436,16187.0
1774430693.3934,88,4261.026,4297.436,4162.564,4140.513,4235.385,450.0
1774430693.4012,89,4247.692,4276.41,4170.256,4123.59,4201.538,450.0
1774430693.4089,90,4267.692,4270.256,4167.179,4133.333,4186.154,450.0
1774430693.4166,91,4253.846,4280.513,4138.974,4146.154,4206.667,16187.0
1774430693.4245,92,4226.667,4273.846,4135.897,4124.615,4212.821,450.0
1774430693.4322,93,4250.769,4250.256,4159.487,4106.154,4202.564,450.0
1774430693.44,94,4287.179,4226.667,4160.0,4128.205,4201.026,450.0
1774430693.4477,95,4285.128,4255.385,4135.385,4147.179,4221.538,16187.0
1774430693.4555,96,4270.256,4296.41,4128.205,4130.256,4243.59,450.0
1774430693.4632,97,4262.564,4272.308,4149.744,4117.949,4231.795,450.0
1774430693.471,98,4258.462,4226.154,4155.385,4128.718,4213.846,450.0
1774430693.4788,99,4277.436,4237.436,4141.026,4138.974,4223.077,16187.0
1774430693.4867,100,4289.231,4266.667,4143.077,4135.385,4230.769,450.0
1774430693.4945,101,4267.179,4229.231,4153.846,4122.051,4227.179,450.0
1774430693.5024,102,4257.949,4192.308,4145.641,4118.462,4223.59,450.0
1774430693.5102,103,4260.0,4232.308,4131.795,4129.744,4226.667,16187.0
1774430693.5181,104,4249.744,4263.59,4140.513,4132.821,4221.538,450.0
1774430693.526,105,4248.718,4233.333,4149.231,4138.462,4205.641,450.0
1774430693.5339,106,4248.718,4225.641,4142.051,4153.846,4217.949,450.0
1774430693.5417,107,4236.41,4242.051,4143.59,4141.538,4243.077,16187.0
1774430693.5496,108,4247.179,4221.026,4142.564,4122.051,4225.641,450.0
1774430693.5574,109,4260.513,4208.205,4130.256,4132.821,4209.231,450.0
1774430693.5653,110,4241.538,4216.923,4143.077,4142.564,4222.564,450.0
1774430693.5731,111,4241.026,4207.692,4155.385,4145.641,4215.897,16187.0
1774430693.5811,112,4264.103,4204.103,4134.872,4156.923,4200.513,450.0
1774430693.5889,113,4247.692,4197.949,4126.667,4145.128,4206.154,450.0
1774430693.5966,114,4233.333,4189.231,4154.872,4126.667,4224.615,450.0
1774430693.6045,115,4262.564,4219.487,4160.0,4146.667,4245.641,16187.0
1774430693.6123,116,4263.59,4266.667,4137.436,4162.051,4239.487,450.0
1774430693.6202,117,4244.103,4276.41,4141.026,4154.359,4222.564,450.0
1774430693.628,118,4271.795,4262.564,4156.923,4168.718,4234.872,450.0
1774430693.636,119,4284.615,4272.821,4147.692,4187.692,4243.59,16187.0
1774430693.6438,120,4246.154,4294.359,4141.026,4167.692,4238.974,450.0
1774430693.6516,121,4238.974,4278.462,4160.513,4130.256,4235.385,450.0
1774430693.6593,122,4261.026,4250.256,4179.487,4130.769,4229.744,450.0
1774430693.6671,123,4259.487,4264.103,4175.897,4168.718,4242.564,16187.0
1774430693.6748,124,4252.308,4285.641,4179.487,4178.974,4247.179,450.0
1774430693.6826,125,4260.513,4272.308,4205.128,4158.974,4218.462,450.0
1774430693.6904,126,4267.179,4262.564,4192.821,4157.436,4212.308,450.0
1774430693.6982,127,4255.385,4270.256,4158.974,4160.0,4236.923,242.0
1774430693.7059,0,4230.769,4270.769,4176.923,4138.974,4225.641,450.0
1774430693.7138,1,4225.128,4262.051,4197.949,4136.923,4193.333,450.0
1774430693.7216,2,4261.538,4250.769,4170.769,4165.128,4203.077,16202.0
1774430693.7295,3,4274.359,4261.538,4158.462,4161.538,4227.692,450.0
1774430693.7373,4,4236.923,4301.538,4187.179,4145.128,4235.897,16168.0
1774430693.7453,5,4224.615,4326.667,4182.051,4161.538,4241.026,450.0
1774430693.7532,6,4226.154,4313.333,4146.667,4161.538,4224.103,16153.0
1774430693.761,7,4195.385,4290.769,4151.795,4129.231,4180.513,450.0
1774430693.7688,8,4170.769,4300.0,4160.0,4127.179,4168.205,450.0
1774430693.7767,9,4181.538,4316.41,4152.821,4145.641,4182.564,16179.0
1774430693.7845,10,4189.231,4303.077,4168.205,4137.949,4176.923,450.0
1774430693.7922,11,4185.128,4278.974,4173.333,4128.718,4178.974,16185.0
1774430693.8001,12,4188.718,4282.564,4152.821,4136.41,4197.436,450.0
1774430693.8078,13,4201.538,4315.897,4147.179,4148.205,4200.513,450.0
1774430693.8156,14,4211.282,4325.128,4156.41,4150.256,4193.333,450.0
1774430693.8233,15,4189.231,4285.641,4157.436,4136.41,4180.0,16185.0
1774430693.8312,16,4170.769,4270.769,4152.308,4128.205,4165.128,0.0
1774430693.8391,17,4192.308,4303.59,4161.538,4143.077,4182.051,0.0
1774430693.8469,18,4212.308,4316.41,4172.821,4158.462,4206.667,0.0
1774430693.8548,19,4205.128,4312.308,4164.615,4156.41,4198.462,0.0
1774430693.8627,20,4191.282,4337.949,4161.538,4147.179,4188.205,0.0
1774430693.8706,21,4198.974,4343.59,4172.821,4145.641,4197.949,0.0
1774430693.8784,22,4216.923,4320.513,4176.923,4153.333,4197.949,0.0
1774430693.8863,23,4219.487,4329.744,4185.128,4150.769,4188.718,0.0
1774430693.8942,24,4206.154,4341.538,4183.59,4133.846,4187.179,0.0
1774430693.9021,25,4201.538,4328.205,4160.513,4124.615,4187.692,0.0
1774430693.91,26,4212.308,4312.308,4163.59,4132.821,4185.128,0.0
1774430693.9178,27,4221.026,4316.41,4182.051,4145.641,4188.718,0.0
1774430693.9257,28,4224.103,4349.744,4164.615,4150.769,4209.744,0.0
1774430693.9335,29,4214.872,4360.513,4152.821,4141.538,4214.872,0.0
1774430693.9414,30,4206.667,4331.795,4167.179,4130.769,4190.256,0.0
1774430693.9492,31,4217.436,4321.538,4158.462,4134.359,4191.282,0.0
1774430693.9572,32,4215.385,4328.205,4137.436,4132.308,4200.513,0.0
1774430693.965,33,4206.154,4314.359,4141.026,4131.282,4189.744,0.0
1774430693.9729,34,4226.154,4323.59,4146.667,4150.769,4208.205,0.0
1774430693.9807,35,4233.846,4354.359,4144.615,4158.974,4238.462,0.0
1774430693.9886,36,4216.923,4337.949,4147.692,4147.692,4211.795,0.0
1774430693.9964,37,4224.103,4320.0,4138.462,4142.051,4184.615,0.0
1774430694.0043,38,4233.846,4357.436,4125.128,4135.897,4205.128,0.0
1774430694.0122,39,4221.538,4373.333,4145.128,4128.205,4205.128,0.0
1774430694.0201,40,4220.0,4338.974,4171.282,4136.923,4190.256,0.0
1774430694.0279,41,4217.436,4330.256,4155.897,4144.615,4213.333,0.0
1774430694.0358,42,4211.282,4333.333,4137.949,4139.487,4225.641,0.0
1774430694.0437,43,4227.692,4311.282,4156.923,4147.179,4210.256,0.0
1774430694.0515,44,4216.923,4327.692,4150.769,4145.128,4196.41,0.0
1774430694.0594,45,4196.923,4364.103,4126.667,4126.154,4186.667,0.0
1774430694.0673,46,4243.077,4338.462,4149.744,4142.051,4196.923,0.0
1774430694.0752,47,4260.513,4303.59,4156.41,4170.256,4225.641,0.0
1774430694.083,48,4206.667,4337.949,4127.692,4159.487,4240.0,0.0
1774430694.0909,49,4198.462,4357.436,4132.821,4143.077,4215.897,0.0
1774430694.0987,50,4231.282,4321.026,4153.333,4144.615,4179.487,0.0
1774430694.1066,51,4235.897,4334.872,4148.718,4153.846,4193.333,0.0
1774430694.1144,52,4237.949,4372.308,4160.0,4162.564,4242.051,0.0
1774430694.1224,53,4242.051,4352.308,4186.667,4159.487,4249.231,0.0
1774430694.1302,54,4228.718,4328.718,4164.615,4155.385,4230.256,0.0
1774430694.1381,55,4217.436,4334.872,4139.487,4157.949,4232.308,0.0
1774430694.1459,56,4215.385,4354.872,4176.41,4158.462,4223.077,0.0
1774430694.1538,57,4217.949,4356.923,4203.59,4161.538,4206.154,0.0
1774430694.1617,58,4228.205,4313.846,4181.026,4164.615,4218.974,0.0
1774430694.1695,59,4233.846,4299.487,4165.641,4157.436,4230.769,0.0
1774430694.1775,60,4220.513,4329.231,4178.462,4145.641,4220.513,0.0
1774430694.1853,61,4216.41,4300.0,4189.744,4142.051,4217.436,0.0
1774430694.1931,62,4227.179,4260.0,4175.897,4143.077,4225.641,0.0
1774430694.201,63,4225.641,4288.718,4161.026,4146.667,4218.462,0.0
1774430694.2089,64,4232.821,4297.436,4175.897,4163.59,4211.282,450.0
1774430694.2167,65,4253.846,4289.231,4183.59,4185.641,4238.462,450.0
1774430694.2247,66,4247.179,4314.359,4160.0,4183.59,4264.615,16203.0
1774430694.2325,67,4231.795,4311.282,4166.667,4162.564,4246.154,450.0
1774430694.2404,68,4244.103,4286.667,4193.846,4162.564,4221.538,16178.0
1774430694.2482,69,4249.744,4301.538,4177.436,4181.026,4234.359,450.0
1774430694.256,70,4231.282,4331.795,4157.436,4184.615,4247.179,16148.0
1774430694.2639,71,4234.359,4331.282,4175.385,4169.744,4246.667,450.0
1774430694.2718,72,4260.513,4294.872,4189.231,4167.179,4248.205,450.0
1774430694.2797,73,4265.128,4278.462,4186.667,4180.513,4244.103,16185.0
1774430694.2876,74,4246.154,4313.333,4187.692,4183.077,4236.923,450.0
1774430694.2954,75,4228.205,4330.256,4189.231,4156.923,4218.462,16202.0
1774430694.3032,76,4226.154,4303.077,4195.385,4146.667,4213.333,450.0
1774430694.3111,77,4249.231,4290.256,4188.205,4182.051,4245.641,450.0
1774430694.319,78,4256.923,4295.897,4162.564,4186.154,4252.308,450.0
1774430694.3269,79,4231.282,4292.821,4168.205,4141.538,4225.641,16202.0
1774430694.3349,80,4232.821,4290.256,4193.846,4141.538,4238.974,450.0
1774430694.3428,81,4268.718,4291.282,4204.103,4179.487,4257.949,450.0
1774430694.3506,82,4266.382,4291.51,4200.513,4178.917,4254.131,450.0
1774430694.3584,83,4264.046,4291.738,4196.923,4178.348,4250.313,450.0
1774430694.3662,84,4261.709,4291.966,4193.333,4177.778,4246.496,450.0
1774430694.374,85,4259.373,4292.194,4189.744,4177.208,4242.678,450.0
1774430694.3818,86,4257.037,4292.422,4186.154,4176.638,4238.86,450.0
1774430694.3897,87,4254.701,4292.65,4182.564,4176.068,4235.043,450.0
1774430694.3975,88,4252.365,4292.877,4178.974,4175.499,4231.225,450.0
1774430694.4053,89,4250.028,4293.105,4175.385,4174.929,4227.407,450.0
1774430694.4131,90,4247.692,4293.333,4171.795,4174.359,4223.59,450.0
1774430694.4209,91,4206.154,4302.051,4182.051,4146.154,4205.641,16202.0
1774430694.4286,92,4213.846,4287.179,4197.949,4158.974,4224.103,450.0
1774430694.4365,93,4247.179,4285.641,4192.821,4185.128,4248.718,450.0
1774430694.4442,94,4255.897,4313.846,4185.641,4186.154,4254.359,450.0
1774430694.4519,95,4251.795,4308.718,4191.795,4165.128,4242.051,16202.0
1774430694.4597,96,4252.821,4284.103,4197.949,4150.256,4225.128,450.0
1774430694.4675,97,4273.846,4294.872,4199.487,4174.872,4253.333,450.0
1774430694.4752,98,4280.0,4303.077,4192.821,4195.897,4284.103,450.0
1774430694.4829,99,4252.308,4290.769,4187.692,4171.282,4260.0,16202.0
1774430694.4907,100,4249.231,4292.308,4196.41,4156.41,4242.564,450.0
1774430694.4985,101,4269.231,4291.282,4195.385,4172.821,4250.769,450.0
1774430694.5063,102,4268.205,4285.128,4183.59,4179.487,4246.154,450.0
1774430694.514,103,4253.333,4293.333,4189.231,4164.103,4241.538,16202.0
1774430694.5218,104,4223.077,4287.692,4194.359,4135.385,4229.231,450.0
1774430694.5295,105,4221.026,4281.026,4188.205,4135.385,4225.128,450.0
1774430694.5373,106,4276.41,4294.872,4189.231,4178.462,4264.103,450.0
1774430694.5451,107,4292.308,4295.385,4190.256,4192.308,4281.538,16202.0
1774430694.5529,108,4247.179,4280.0,4184.103,4157.436,4240.0,450.0
1774430694.5606,109,4241.538,4273.846,4193.846,4140.0,4203.59,450.0
1774430694.5684,110,4267.692,4277.436,4203.59,4163.077,4206.154,450.0
1774430694.5761,111,4254.359,4282.051,4186.154,4175.385,4229.744,16202.0
1774430694.5839,112,4243.59,4303.59,4179.487,4164.615,4257.949,450.0
1774430694.5916,113,4265.128,4321.026,4199.487,4165.641,4254.359,450.0
1774430694.5995,114,4276.41,4297.436,4208.205,4171.282,4226.667,450.0
1774430694.6072,115,4268.718,4287.692,4202.564,4169.744,4223.077,16202.0
1774430694.615,116,4260.513,4325.641,4195.385,4180.513,4232.308,450.0
1774430694.6227,117,4268.718,4343.59,4195.385,4198.974,4240.0,450.0
1774430694.6304,118,4280.513,4331.795,4199.487,4195.897,4263.59,450.0
1774430694.6382,119,4274.872,4320.0,4202.564,4169.744,4272.308,16202.0
1774430694.6459,120,4266.154,4294.872,4204.103,4156.41,4237.436,450.0
1774430694.6538,121,4283.077,4283.077,4197.949,4177.949,4218.974,450.0
1774430694.6615,122,4293.846,4306.154,4193.333,4200.0,4245.641,450.0
1774430694.6693,123,4268.205,4321.538,4191.282,4188.718,4269.231,16202.0
1774430694.677,124,4249.231,4324.615,4198.462,4165.128,4252.821,450.0
1774430694.6848,125,4256.923,4340.0,4218.462,4161.538,4226.667,450.0
1774430694.6926,126,4275.897,4337.436,4206.154,4180.513,4241.026,450.0
1774430694.7003,127,4291.282,4329.744,4174.359,4186.154,4268.718,242.0
1774430694.7081,0,4285.128,4363.59,4177.949,4167.179,4261.538,450.0
1774430694.7159,1,4263.077,4391.795,4202.051,4160.0,4246.667,450.0
1774430694.7236,2,4256.41,4370.256,4208.205,4172.308,4244.615,16201.0
1774430694.7314,3,4272.821,4340.513,4195.897,4176.41,4222.564,450.0
1774430694.7391,4,4272.308,4352.821,4184.103,4173.846,4209.744,16174.0
1774430694.7469,5,4253.333,4382.051,4170.256,4169.231,4239.487,450.0
1774430694.7546,6,4249.231,4362.051,4171.282,4151.795,4240.513,16148.0
1774430694.7625,7,4257.949,4322.564,4186.154,4145.128,4213.333,450.0
1774430694.7702,8,4257.949,4316.923,4166.667,4156.923,4223.077,450.0
1774430694.7779,9,4254.359,4334.359,4146.154,4153.846,4244.615,16185.0
1774430694.7857,10,4255.385,4342.051,4176.923,4143.59,4240.513,450.0
1774430694.7935,11,4250.769,4321.538,4200.0,4151.795,4214.359,16195.0
1774430694.8012,12,4253.846,4305.128,4184.103,4160.0,4200.0,450.0
1774430694.8089,13,4264.103,4316.923,4168.718,4155.385,4226.154,450.0
1774430694.8168,14,4251.795,4333.333,4164.103,4145.641,4253.846,450.0
1774430694.8245,15,4241.026,4338.974,4166.154,4133.846,4234.872,16195.0
1774430694.8323,16,4262.564,4347.179,4174.872,4138.462,4204.615,0.0
1774430694.84,17,4276.923,4358.974,4175.897,4160.0,4208.718,0.0
1774430694.8478,18,4257.949,4362.564,4164.615,4160.0,4221.538,0.0
1774430694.8555,19,4242.051,4354.872,4169.744,4140.513,4207.179,0.0
1774430694.8633,20,4253.846,4351.282,4191.282,4151.795,4192.821,0.0
1774430694.8711,21,4263.59,4350.256,4177.949,4168.205,4214.359,0.0
1774430694.8789,22,4253.846,4339.487,4142.051,4147.692,4237.436,0.0
1774430694.8866,23,4258.974,4344.103,4152.821,4138.974,4231.795,0.0
1774430694.8943,24,4266.154,4364.615,4184.103,4150.769,4215.897,0.0
1774430694.9021,25,4266.154,4356.923,4188.718,4154.359,4223.59,0.0
1774430694.9099,26,4284.103,4317.949,4186.154,4167.179,4246.154,0.0
1774430694.9176,27,4277.949,4313.846,4179.487,4174.359,4232.821,0.0
1774430694.9255,28,4238.974,4346.667,4166.667,4153.846,4203.077,0.0
1774430694.9332,29,4237.436,4342.564,4179.487,4142.564,4212.821,0.0
1774430694.941,30,4270.256,4315.897,4205.128,4160.513,4233.333,0.0
1774430694.9487,31,4266.667,4323.077,4183.59,4170.256,4221.538,0.0
1774430694.9565,32,4243.077,4346.667,4140.513,4162.051,4212.821,0.0
1774430694.9642,33,4253.333,4340.513,4151.795,4160.0,4234.872,0.0
1774430694.972,34,4281.538,4333.333,4188.205,4170.769,4237.436,0.0
1774430694.9798,35,4281.538,4352.821,4182.564,4178.974,4209.231,0.0
1774430694.9875,36,4255.385,4373.846,4150.769,4168.205,4203.077,0.0
1774430694.9953,37,4236.41,4372.821,4153.333,4148.205,4228.205,0.0
1774430695.003,38,4238.974,4350.769,4182.564,4143.077,4233.333,0.0
1774430695.0108,39,4255.385,4336.41,4189.744,4151.795,4209.744,0.0
1774430695.0185,40,4269.744,4354.872,4181.538,4155.385,4204.615,0.0
1774430695.0264,41,4255.897,4394.872,4171.795,4149.744,4217.949,0.0
1774430695.0342,42,4235.897,4392.308,4163.077,4152.308,4218.462,0.0
1774430695.0419,43,4258.462,4356.923,4183.59,4169.744,4222.051,0.0
1774430695.0496,44,4286.154,4350.256,4204.615,4182.564,4236.41,0.0
1774430695.0574,45,4273.846,4344.615,4185.641,4175.385,4244.103,0.0
1774430695.0651,46,4250.769,4337.436,4163.59,4161.026,4246.667,0.0
1774430695.0729,47,4236.923,4351.795,4173.846,4151.795,4237.436,0.0
1774430695.0807,48,4243.077,4347.692,4190.256,4150.256,4215.385,0.0
1774430695.0884,49,4271.795,4329.231,4177.949,4155.897,4224.103,0.0
1774430695.0962,50,4267.692,4337.436,4157.436,4152.308,4239.487,0.0
1774430695.104,51,4228.718,4340.0,4164.615,4138.974,4209.744,0.0
1774430695.1117,52,4240.0,4317.436,4185.641,4142.051,4196.41,0.0
1774430695.1194,53,4279.487,4317.949,4191.282,4159.487,4236.41,0.0
1774430695.1272,54,4273.846,4346.154,4180.0,4175.385,4270.769,0.0
1774430695.1351,55,4250.769,4367.179,4171.282,4181.026,4272.308,0.0
1774430695.1428,56,4251.282,4375.897,4181.026,4173.333,4258.974,0.0
1774430695.1506,57,4257.436,4371.795,4196.923,4165.128,4226.154,0.0
1774430695.1583,58,4257.949,4348.205,4197.436,4167.692,4200.513,0.0
1774430695.1661,59,4250.256,4340.513,4185.641,4167.692,4219.487,0.0
1774430695.1738,60,4233.846,4361.026,4186.154,4150.256,4244.103,0.0
1774430695.1816,61,4245.128,4353.333,4204.615,4153.846,4244.615,0.0
1774430695.1894,62,4273.333,4316.41,4203.59,4183.59,4241.538,0.0
1774430695.1972,63,4277.436,4320.0,4181.026,4189.231,4247.179,0.0
1774430695.2049,64,4273.333,4357.436,4182.051,4165.128,4245.128,450.0
1774430695.2126,65,4269.744,4362.564,4204.615,4151.282,4223.077,450.0
1774430695.2204,66,4267.179,4337.436,4207.692,4167.692,4221.026,16218.0
1774430695.2282,67,4273.846,4332.821,4181.538,4190.256,4244.615,450.0
1774430695.2359,68,4272.821,4360.0,4173.333,4189.231,4251.795,16151.0
1774430695.2437,69,4255.897,4366.667,4192.308,4166.154,4231.795,450.0
1774430695.2514,70,4249.231,4330.769,4195.385,4147.692,4208.205,16174.0
1774430695.2592,71,4262.051,4330.769,4191.282,4155.385,4211.795,450.0
1774430695.267,72,4264.103,4385.641,4187.179,4177.949,4231.795,450.0
1774430695.2747,73,4264.103,4422.051,4173.846,4180.0,4247.692,16183.0
1774430695.2825,74,4280.0,4418.974,4175.385,4160.513,4251.282,450.0
1774430695.2902,75,4295.385,4409.231,4195.385,4154.359,4240.0,16187.0
1774430695.2981,76,4293.333,4411.795,4201.538,4161.026,4235.385,450.0
1774430695.3058,77,4290.256,4423.077,4196.923,4173.333,4253.333,450.0
1774430695.3136,78,4284.615,4441.026,4194.872,4187.179,4267.692,450.0
1774430695.3213,79,4269.744,4445.641,4182.051,4187.692,4259.487,16187.0
1774430695.3291,80,4269.231,4430.256,4173.846,4168.205,4250.256,450.0
1774430695.3368,81,4280.0,4425.641,4189.744,4152.821,4241.026,450.0
1774430695.3446,82,4272.308,4423.077,4203.59,4162.051,4226.667,450.0
1774430695.3524,83,4265.641,4403.59,4198.974,4183.59,4241.026,16187.0
1774430695.3602,84,4286.154,4411.282,4190.769,4191.795,4266.154,450.0
1774430695.3679,85,4281.026,4446.667,4178.462,4173.846,4250.256,450.0
1774430695.3756,86,4237.949,4432.308,4168.718,4160.0,4229.744,450.0
1774430695.3834,87,4241.026,4381.026,4181.026,4167.692,4229.231,16187.0
1774430695.3912,88,4279.487,4375.385,4186.667,4173.333,4214.359,450.0
1774430695.3989,89,4276.923,4402.564,4169.231,4171.282,4211.795,450.0
1774430695.4067,90,4249.231,4402.564,4163.077,4167.692,4233.333,450.0
1774430695.4145,91,4243.59,4382.564,4180.513,4164.615,4236.41,16187.0
1774430695.4222,92,4262.051,4395.385,4190.769,4175.385,4241.538,450.0
1774430695.43,93,4277.436,4433.333,4183.077,4192.821,4262.051,450.0
1774430695.4377,94,4275.897,4435.897,4183.59,4187.179,4261.026,450.0
1774430695.4455,95,4265.641,4395.385,4192.821,4160.513,4235.897,16187.0
1774430695.4532,96,4260.513,4373.333,4193.846,4140.0,4206.667,450.0
1774430695.4611,97,4261.538,4393.846,4181.538,4155.385,4209.231,450.0
1774430695.4688,98,4257.436,4409.744,4172.821,4174.872,4251.282,450.0
1774430695.4766,99,4253.333,4406.667,4192.821,4167.692,4264.103,16187.0
1774430695.4843,100,4254.359,4388.205,4205.128,4162.051,4231.795,450.0
1774430695.4921,101,4241.026,4365.128,4185.128,4162.051,4214.359,450.0
1774430695.4998,102,4229.744,4383.077,4181.538,4158.462,4232.821,450.0
1774430695.5076,103,4245.128,4416.923,4195.897,4156.923,4242.564,16187.0
1774430695.5154,104,4265.641,4409.231,4194.872,4167.179,4231.282,450.0
1774430695.5232,105,4275.385,4397.436,4179.487,4182.051,4240.513,450.0
1774430695.5309,106,4277.949,4403.077,4158.462,4188.205,4266.154,450.0
1774430695.5387,107,4271.795,4394.872,4149.744,4187.179,4267.179,16187.0
1774430695.5464,108,4269.744,4400.513,4163.077,4189.231,4254.872,450.0
1774430695.5542,109,4274.359,4418.974,4194.359,4189.231,4255.385,450.0
1774430695.5619,110,4271.282,4400.513,4208.718,4172.821,4249.231,450.0
1774430695.5697,111,4270.769,4388.718,4195.897,4177.436,4246.667,16187.0
1774430695.5775,112,4272.821,4415.385,4188.718,4198.974,4255.385,450.0
1774430695.5852,113,4267.179,4425.641,4183.59,4184.103,4250.256,450.0
1774430695.593,114,4270.256,4401.026,4173.846,4160.0,4241.026,450.0
1774430695.6007,115,4282.051,4396.923,4180.0,4171.795,4244.615,16187.0
1774430695.6085,116,4281.538,4414.872,4198.462,4187.179,4238.974,450.0
1774430695.6163,117,4276.41,4410.769,4211.282,4183.077,4220.0,450.0
1774430695.6241,118,4269.744,4409.231,4197.436,4183.077,4217.949,450.0
1774430695.6318,119,4241.538,4418.462,4170.769,4167.692,4225.128,16187.0
1774430695.6396,120,4227.692,4400.513,4171.282,4140.513,4214.872,450.0
1774430695.6473,121,4251.795,4354.872,4175.897,4151.282,4191.282,450.0
1774430695.6551,122,4267.179,4337.436,4159.487,4176.923,4198.462,450.0
1774430695.6628,123,4245.128,4354.872,4145.128,4171.282,4228.205,16187.0
1774430695.6707,124,4222.564,4350.256,4146.667,4144.615,4207.179,450.0
1774430695.6784,125,4241.538,4338.462,4162.564,4149.744,4185.128,450.0
1774430695.6862,126,4258.462,4354.872,4174.359,4171.282,4217.436,450.0
1774430695.6939,127,4242.051,4361.026,4176.41,4160.0,4226.154,242.0
1774430695.7016,0,4250.256,4334.359,4186.667,4154.872,4197.436,450.0
1774430695.7094,1,4282.564,4336.923,4191.282,4169.744,4209.231,450.0
1774430695.7171,2,4283.077,4376.923,4172.821,4163.077,4245.128,16203.0
1774430695.725,3,4251.795,4367.179,4173.846,4145.641,4235.897,450.0
1774430695.7327,4,4232.821,4340.0,4195.385,4151.282,4210.256,16185.0
1774430695.7405,5,4252.308,4360.0,4180.0,4171.795,4214.359,450.0
1774430695.7482,6,4272.821,4370.256,4153.333,4171.282,4228.205,16152.0
1774430695.756,7,4254.359,4346.154,4163.077,4147.179,4217.949,450.0
1774430695.7638,8,4238.974,4338.462,4170.769,4142.051,4198.974,450.0
1774430695.7715,9,4254.359,4349.744,4157.436,4157.436,4203.59,16190.0
1774430695.7793,10,4247.692,4355.385,4171.282,4153.333,4222.564,450.0
1774430695.7871,11,4226.154,4364.103,4199.487,4151.282,4221.538,16196.0
1774430695.7949,12,4246.154,4355.897,4191.795,4166.154,4207.692,450.0
1774430695.8026,13,4263.077,4346.154,4203.59,4154.359,4205.641,450.0
1774430695.8104,14,4250.256,4351.795,4298.462,4125.128,4197.949,450.0
1774430695.8181,15,4266.667,4349.231,4388.205,4117.436,4187.692,16196.0
1774430695.8258,16,4304.615,4348.205,4401.026,4125.641,4195.385,0.0
1774430695.8336,17,4298.974,4341.026,4397.949,4129.231,4190.769,0.0
1774430695.8414,18,4261.026,4348.205,4401.538,4122.051,4173.333,0.0
1774430695.8492,19,4233.846,4381.538,4393.846,4110.769,4188.205,0.0
1774430695.8569,20,4232.821,4377.949,4395.897,4103.59,4198.462,0.0
1774430695.8647,21,4253.846,4324.615,4402.051,4102.051,4172.308,0.0
1774430695.8724,22,4278.974,4317.949,4406.154,4112.308,4181.026,0.0
1774430695.8802,23,4285.128,4370.769,4405.641,4129.744,4215.385,0.0
1774430695.888,24,4271.795,4402.051,4411.795,4135.897,4208.205,0.0
1774430695.8958,25,4265.128,4412.821,4446.154,4136.41,4194.872,0.0
1774430695.9035,26,4260.0,4396.923,4480.513,4128.718,4191.282,0.0
1774430695.9113,27,4238.974,4352.308,4484.615,4114.872,4177.436,0.0
1774430695.919,28,4233.333,4338.974,4472.821,4118.974,4176.923,0.0
1774430695.9267,29,4249.744,4361.026,4458.974,4123.077,4189.744,0.0
1774430695.9345,30,4244.615,4381.026,4457.949,4114.359,4190.769,0.0
1774430695.9424,31,4222.564,4383.59,4467.692,4109.231,4170.256,0.0
1774430695.9501,32,4238.462,4359.487,4458.462,4109.231,4150.769,0.0
1774430695.9578,33,4280.0,4342.051,4435.385,4125.128,4173.846,0.0
1774430695.9656,34,4281.538,4366.667,4427.179,4148.718,4217.436,0.0
1774430695.9733,35,4251.795,4384.103,4443.077,4149.231,4226.667,0.0
1774430695.981,36,4250.769,4360.0,4461.026,4129.231,4203.077,0.0
1774430695.9888,37,4266.154,4330.769,4458.974,4122.564,4182.564,0.0
1774430695.9967,38,4266.154,4329.231,4444.615,4135.897,4182.051,0.0
1774430696.0044,39,4251.282,4349.231,4417.949,4130.256,4188.718,0.0
1774430696.0122,40,4246.154,4362.564,4414.872,4116.923,4197.949,0.0
1774430696.0199,41,4261.026,4329.231,4452.821,4134.872,4192.308,0.0
1774430696.0277,42,4264.103,4289.744,4460.0,4146.667,4176.41,0.0
1774430696.0354,43,4244.103,4316.41,4425.128,4137.949,4189.744,0.0
1774430696.0432,44,4211.282,4346.154,4411.795,4133.333,4197.436,0.0
1774430696.051,45,4209.744,4305.641,4418.462,4117.949,4169.744,0.0
1774430696.0588,46,4254.872,4278.462,4409.744,4106.154,4163.59,0.0
1774430696.0665,47,4279.487,4317.436,4397.436,4124.615,4190.769,0.0
1774430696.0743,48,4266.154,4347.179,4400.0,4138.974,4203.077,0.0
1774430696.082,49,4271.795,4342.051,4397.436,4130.769,4202.051,0.0
1774430696.0897,50,4285.128,4326.667,4401.026,4125.641,4203.59,0.0
1774430696.0975,51,4269.744,4308.718,4408.718,4132.308,4191.795,0.0
1774430696.1053,52,4267.179,4308.205,4386.667,4139.487,4170.769,0.0
1774430696.1132,53,4275.897,4318.974,4364.103,4127.692,4154.359,0.0
1774430696.1211,54,4262.564,4318.462,4368.205,4110.769,4169.744,0.0
1774430696.1289,55,4255.897,4307.692,4389.231,4118.974,4200.0,0.0
1774430696.1367,56,4277.436,4308.718,4407.179,4130.769,4196.41,0.0
1774430696.1445,57,4297.436,4309.231,4401.026,4126.667,4177.436,0.0
1774430696.1525,58,4300.513,4304.103,4389.744,4129.231,4181.538,0.0
1774430696.1604,59,4294.359,4311.795,4381.538,4142.051,4210.256,0.0
1774430696.1682,60,4278.974,4321.538,4379.487,4143.59,4215.385,0.0
1774430696.176,61,4273.846,4310.769,4389.231,4127.179,4180.513,0.0
1774430696.1839,62,4290.769,4288.205,4384.615,4122.564,4173.333,0.0
1774430696.1917,63,4291.282,4282.051,4362.564,4135.385,4198.462,0.0
1774430696.1996,64,4274.872,4294.872,4355.897,4129.231,4196.41,450.0
1774430696.2075,65,4285.641,4292.308,4371.795,4114.359,4187.179,450.0
1774430696.2154,66,4308.205,4274.359,4384.103,4136.41,4210.769,16206.0
1774430696.2233,67,4312.308,4290.256,4377.436,4168.205,4234.359,450.0
1774430696.2312,68,4310.769,4324.103,4358.462,4161.026,4232.308,16188.0
1774430696.239,69,4301.026,4315.385,4354.359,4135.385,4220.0,450.0
1774430696.2469,70,4291.282,4280.513,4374.359,4134.359,4206.667,16136.0
1774430696.2547,71,4288.782,4282.885,4372.372,4135.064,4208.526,450.0
1774430696.2626,72,4286.282,4285.256,4370.385,4135.769,4210.385,450.0
1774430696.2704,73,4283.782,4287.628,4368.397,4136.474,4212.244,16190.0
1774430696.2782,74,4281.282,4290.0,4366.41,4137.179,4214.103,450.0
1774430696.286,75,4278.782,4292.372,4364.423,4137.885,4215.962,16196.0
1774430696.2938,76,4276.282,4294.744,4362.436,4138.59,4217.821,450.0
1774430696.3016,77,4273.782,4297.115,4360.449,4139.295,4219.679,450.0
1774430696.3095,78,4271.282,4299.487,4358.462,4140.0,4221.538,450.0
1774430696.3172,79,4290.769,4261.538,4333.333,4131.282,4215.385,16208.0
1774430696.325,80,4295.897,4281.026,4328.205,4152.308,4210.769,450.0
1774430696.3327,81,4287.692,4295.897,4330.256,4167.179,4233.846,450.0
1774430696.3405,82,4286.154,4263.59,4316.41,4151.282,4231.282,450.0
1774430696.3482,83,4286.154,4254.872,4313.846,4136.923,4194.359,16208.0
1774430696.356,84,4277.949,4269.231,4314.359,4142.564,4195.385,450.0
1774430696.3639,85,4289.744,4266.154,4302.051,4164.103,4229.744,450.0
1774430696.3716,86,4314.359,4273.333,4310.769,4179.487,4236.923,450.0
1774430696.3794,87,4294.872,4288.718,4322.564,4159.487,4219.487,16208.0
1774430696.3871,88,4259.487,4276.41,4316.41,4127.179,4194.359,450.0
1774430696.3948,89,4268.718,4248.205,4316.923,4133.846,4189.744,450.0
1774430696.4026,90,4283.077,4248.718,4305.641,4165.128,4213.333,450.0
1774430696.4103,91,4273.333,4283.59,4291.795,4167.692,4225.128,16208.0
1774430696.4182,92,4271.282,4309.744,4304.103,4151.795,4215.385,450.0
1774430696.4259,93,4270.769,4288.718,4313.333,4137.436,4198.974,450.0
1774430696.4337,94,4278.974,4283.077,4306.667,4145.641,4210.256,450.0
1774430696.4414,95,4304.615,4324.615,4298.974,4177.436,4240.513,16208.0
1774430696.4491,96,4291.282,4338.462,4283.59,4176.41,4233.333,450.0
1774430696.4569,97,4257.436,4325.641,4270.769,4146.667,4211.795,450.0
1774430696.4646,98,4258.974,4325.128,4280.513,4136.923,4212.821,450.0
1774430696.4725,99,4260.513,4310.256,4288.205,4138.974,4213.333,16208.0
1774430696.4803,100,4251.282,4308.205,4270.256,4140.513,4207.692,450.0
1774430696.488,101,4260.0,4337.949,4263.077,4155.897,4221.538,450.0
1774430696.4958,102,4264.615,4332.308,4278.974,4165.128,4234.872,450.0
1774430696.5036,103,4253.846,4292.308,4284.103,4145.641,4212.821,16208.0
1774430696.5115,104,4262.564,4291.282,4285.128,4135.385,4187.179,450.0
1774430696.5194,105,4273.333,4311.282,4275.385,4153.333,4206.667,450.0
1774430696.5273,106,4251.282,4299.487,4248.718,4151.282,4234.359,450.0
1774430696.5351,107,4241.538,4293.333,4255.897,4123.077,4216.41,16208.0
1774430696.543,108,4264.615,4307.692,4293.333,4125.641,4193.333,450.0
1774430696.5509,109,4270.769,4321.538,4286.667,4152.821,4207.179,450.0
1774430696.5587,110,4254.359,4341.026,4245.641,4153.846,4217.949,450.0
1774430696.5665,111,4254.872,4354.359,4250.769,4139.487,4212.308,16208.0
1774430696.5744,112,4263.59,4342.564,4278.462,4140.0,4212.308,450.0
1774430696.5824,113,4256.41,4309.231,4259.487,4144.615,4213.333,450.0
1774430696.5902,114,4257.436,4308.718,4225.641,4141.026,4212.308,450.0
1774430696.598,115,4265.128,4337.949,4231.282,4135.897,4212.308,16208.0
1774430696.6059,116,4260.513,4330.256,4249.231,4127.179,4203.59,450.0
1774430696.6137,117,4261.538,4303.077,4245.641,4124.103,4190.769,450.0
1774430696.6216,118,4261.538,4320.0,4232.821,4144.615,4208.718,450.0
1774430696.6294,119,4248.205,4344.615,4230.769,4158.974,4236.41,16208.0
1774430696.6374,120,4255.897,4328.205,4243.077,4142.564,4217.436,450.0
1774430696.6452,121,4273.333,4299.487,4246.154,4135.385,4196.41,450.0
1774430696.6531,122,4258.974,4282.051,4232.821,4146.154,4220.513,450.0
1774430696.6609,123,4231.282,4278.462,4220.513,4136.41,4226.154,16208.0
1774430696.6688,124,4227.692,4283.077,4225.128,4125.641,4201.026,450.0
1774430696.6767,125,4262.051,4288.205,4244.103,4150.256,4220.0,450.0
1774430696.6846,126,4299.487,4295.385,4244.615,4177.949,4253.846,450.0
1774430696.6926,127,4290.256,4296.41,4228.205,4180.0,4247.692,242.0
1774430696.7004,0,4259.487,4306.667,4219.487,4165.641,4232.821,450.0
1774430696.7082,1,4263.59,4322.051,4225.641,4148.718,4225.128,450.0
1774430696.716,2,4283.077,4308.205,4231.282,4145.128,4212.308,16210.0
1774430696.7239,3,4266.154,4282.564,4211.282,4147.692,4199.487,450.0
1774430696.7317,4,4246.154,4303.077,4198.462,4147.179,4204.615,16158.0
1774430696.7396,5,4264.615,4343.077,4225.641,4154.872,4224.103,450.0
1774430696.7475,6,4286.154,4332.821,4243.077,4156.923,4212.821,16157.0
1774430696.7554,7,4279.487,4296.41,4214.359,4144.103,4189.231,450.0
1774430696.7632,8,4267.692,4302.051,4187.692,4137.949,4202.051,450.0
1774430696.7711,9,4269.231,4334.359,4202.564,4145.128,4228.718,16193.0
1774430696.7789,10,4287.692,4325.128,4225.641,4156.41,4229.231,450.0
1774430696.7868,11,4300.0,4289.231,4214.872,4164.103,4226.154,16190.0
1774430696.7946,12,4290.256,4303.59,4191.795,4171.282,4248.205,450.0
1774430696.8026,13,4281.026,4342.564,4202.051,4166.154,4249.744,450.0
1774430696.8104,14,4256.923,4334.872,4218.974,4136.923,4213.333,450.0
1774430696.8183,15,4244.103,4317.949,4201.538,4130.256,4206.154,16190.0
1774430696.8261,16,4275.385,4336.41,4183.077,4155.385,4242.051,0.0
1774430696.834,17,4301.538,4344.103,4201.026,4161.026,4264.615,0.0
1774430696.8419,18,4287.692,4320.513,4221.538,4147.179,4242.051,0.0
1774430696.8498,19,4267.179,4306.667,4218.462,4146.154,4221.026,0.0
1774430696.8577,20,4284.103,4327.179,4215.897,4163.59,4238.974,0.0
1774430696.8655,21,4294.359,4361.538,4204.615,4167.692,4245.128,0.0
1774430696.8734,22,4269.231,4382.564,4197.949,4148.718,4230.256,0.0
1774430696.8812,23,4264.103,4359.487,4216.41,4142.051,4235.897,0.0
1774430696.8891,24,4285.641,4326.154,4232.821,4158.462,4245.641,0.0
1774430696.8969,25,4293.333,4340.513,4224.103,4171.795,4246.667,0.0
1774430696.9049,26,4295.385,4365.641,4203.59,4180.0,4265.641,0.0
1774430696.9127,27,4309.744,4354.872,4207.179,4181.538,4269.744,0.0
1774430696.9206,28,4292.308,4347.179,4223.59,4154.872,4242.564,0.0
1774430696.9284,29,4267.179,4341.538,4226.154,4139.487,4240.0,0.0
1774430696.9363,30,4275.385,4310.769,4223.077,4157.436,4253.846,0.0
1774430696.9441,31,4287.179,4309.744,4210.769,4168.718,4248.718,0.0
1774430696.952,32,4284.615,4351.795,4198.462,4165.128,4241.026,0.0
1774430696.9599,33,4264.615,4364.615,4210.256,4157.949,4244.103,0.0
1774430696.9678,34,4251.795,4337.949,4231.282,4146.154,4246.154,0.0
1774430696.9756,35,4269.744,4329.744,4231.282,4147.692,4244.615,0.0
1774430696.9835,36,4289.744,4349.231,4211.282,4169.744,4249.744,0.0
1774430696.9914,37,4278.974,4365.641,4202.564,4176.41,4258.974,0.0
1774430696.9992,38,4258.462,4372.308,4211.282,4174.359,4252.821,0.0
1774430697.007,39,4254.872,4345.641,4214.872,4165.641,4219.487,0.0
1774430697.015,40,4261.026,4320.0,4217.949,4141.538,4201.538,0.0
1774430697.0229,41,4282.564,4336.41,4220.0,4153.333,4237.949,0.0
1774430697.0307,42,4283.077,4356.923,4202.564,4179.487,4272.821,0.0
1774430697.0386,43,4251.795,4361.026,4202.564,4166.667,4264.103,0.0
1774430697.0464,44,4248.718,4349.231,4231.795,4147.179,4234.872,0.0
1774430697.0543,45,4269.231,4331.795,4228.718,4151.795,4207.179,0.0
1774430697.0622,46,4273.333,4346.667,4191.795,4167.179,4216.41,0.0
1774430697.0702,47,4268.205,4392.821,4192.308,4172.308,4251.795,0.0
1774430697.078,48,4255.385,4415.897,4217.436,4160.0,4243.59,0.0
1774430697.0858,49,4242.051,4395.897,4214.359,4145.128,4206.154,0.0
1774430697.0937,50,4262.051,4367.692,4203.077,4154.359,4214.359,0.0
1774430697.1016,51,4280.513,4355.385,4190.256,4166.667,4238.462,0.0
1774430697.1094,52,4244.615,4368.205,4168.205,4155.385,4217.949,0.0
1774430697.1174,53,4220.513,4374.872,4171.795,4147.179,4195.897,0.0
1774430697.1252,54,4248.205,4351.282,4175.897,4149.744,4197.949,0.0
1774430697.1331,55,4263.077,4333.846,4154.872,4146.154,4208.718,0.0
1774430697.141,56,4253.333,4363.59,4157.949,4151.282,4235.897,0.0
1774430697.1488,57,4248.718,4397.436,4193.846,4169.231,4244.615,0.0
1774430697.1567,58,4248.205,4366.667,4216.41,4170.256,4219.487,0.0
1774430697.1645,59,4244.615,4318.974,4196.41,4152.821,4217.949,0.0
1774430697.1725,60,4242.051,4332.308,4175.897,4148.718,4232.308,0.0
1774430697.1803,61,4251.282,4378.462,4193.846,4163.59,4221.538,0.0
1774430697.1882,62,4262.564,4363.077,4203.077,4164.103,4209.744,0.0
1774430697.196,63,4256.923,4307.179,4174.872,4152.308,4212.308,0.0
1774430697.2038,64,4231.282,4323.59,4148.718,4154.872,4213.333,450.0
1774430697.2117,65,4224.615,4371.282,4156.923,4162.051,4218.974,450.0
1774430697.2196,66,4247.692,4347.692,4172.308,4155.897,4214.359,16218.0
1774430697.2275,67,4246.667,4303.077,4162.051,4150.256,4194.359,450.0
1774430697.2354,68,4237.949,4313.333,4151.795,4162.051,4201.538,16166.0
1774430697.2432,69,4259.487,4333.846,4175.385,4166.667,4233.846,450.0
1774430697.2511,70,4272.308,4322.564,4208.205,4156.41,4244.615,16164.0
1774430697.2589,71,4264.615,4309.231,4200.513,4155.385,4233.846,450.0
1774430697.2668,72,4258.974,4324.103,4151.795,4167.179,4229.744,450.0
1774430697.2746,73,4251.282,4361.026,4134.359,4172.308,4238.462,16187.0
1774430697.2826,74,4255.385,4365.641,4168.205,4171.795,4238.462,450.0
1774430697.2905,75,4277.949,4325.128,4177.949,4174.872,4223.59,16189.0
1774430697.2983,76,4277.436,4310.769,4152.821,4168.718,4218.462,450.0
1774430697.3061,77,4262.051,4351.282,4151.282,4168.718,4245.128,450.0
1774430697.314,78,4262.051,4367.179,4171.795,4178.974,4266.154,450.0
1774430697.3218,79,4252.821,4325.128,4182.051,4169.744,4233.333,16189.0
1774430697.3298,80,4236.923,4311.795,4182.564,4162.051,4201.026,450.0
1774430697.3376,81,4249.231,4341.026,4175.385,4186.667,4230.256,450.0
1774430697.3455,82,4271.282,4351.795,4161.026,4200.0,4268.718,450.0
1774430697.3533,83,4268.205,4334.872,4161.026,4175.385,4260.513,16189.0
1774430697.3612,84,4268.205,4322.051,4171.282,4168.205,4237.949,450.0
1774430697.369,85,4273.846,4322.051,4154.872,4186.667,4234.872,450.0
1774430697.3769,86,4266.154,4332.308,4135.385,4191.795,4250.256,450.0
1774430697.3848,87,4265.641,4344.103,4144.615,4191.282,4267.179,16189.0
1774430697.3927,88,4265.128,4336.41,4168.205,4185.641,4252.821,450.0
1774430697.4006,89,4262.051,4313.846,4184.615,4182.051,4238.974,450.0
1774430697.4084,90,4274.872,4304.615,4173.333,4192.308,4253.846,450.0
1774430697.4163,91,4266.667,4303.077,4152.308,4186.667,4254.359,16189.0
1774430697.4241,92,4243.077,4293.846,4168.205,4167.179,4229.744,450.0
1774430697.4319,93,4265.641,4287.692,4204.103,4168.718,4226.154,450.0
1774430697.4399,94,4301.026,4276.41,4200.0,4189.744,4252.308,450.0
1774430697.4478,95,4284.615,4273.846,4148.718,4188.205,4261.026,16189.0
1774430697.4556,96,4254.872,4316.41,4122.564,4173.846,4248.205,450.0
1774430697.4635,97,4252.308,4333.333,4145.128,4174.872,4247.179,450.0
1774430697.4713,98,4266.667,4286.667,4163.077,4181.026,4255.897,450.0
1774430697.4792,99,4281.026,4282.051,4152.821,4184.615,4257.949,16189.0
1774430697.487,100,4268.718,4320.513,4140.0,4165.128,4242.051,450.0
1774430697.495,101,4258.462,4297.949,4147.692,4147.692,4233.846,450.0
1774430697.5028,102,4274.872,4251.795,4160.0,4164.615,4245.128,450.0
1774430697.5107,103,4266.667,4261.538,4139.487,4174.359,4247.179,16189.0
1774430697.5185,104,4250.769,4305.128,4123.077,4167.692,4253.333,450.0
1774430697.5264,105,4272.308,4306.667,4156.41,4168.205,4266.667,450.0
1774430697.5342,106,4273.846,4267.179,4177.949,4157.949,4243.077,450.0
1774430697.5422,107,4250.256,4267.179,4148.718,4153.333,4218.974,16189.0
1774430697.5501,108,4255.385,4293.846,4137.436,4172.821,4241.538,450.0
1774430697.5579,109,4255.897,4288.718,4155.385,4165.128,4250.256,450.0
1774430697.5658,110,4245.641,4268.205,4146.667,4147.179,4241.026,450.0
1774430697.5736,111,4265.128,4272.821,4123.077,4164.103,4267.179,16189.0
1774430697.5815,112,4273.333,4298.462,4122.051,4176.41,4290.769,450.0
1774430697.5893,113,4245.128,4273.846,4131.282,4155.385,4247.692,450.0
1774430697.5973,114,4244.103,4207.179,4142.051,4137.436,4202.051,450.0
1774430697.6051,115,4259.487,4218.974,4136.41,4152.821,4235.897,16189.0
1774430697.613,116,4238.974,4282.564,4119.487,4159.487,4261.026,450.0
1774430697.6208,117,4233.846,4267.692,4137.949,4146.667,4221.026,450.0
1774430697.6287,118,4256.923,4240.513,4153.846,4153.333,4208.205,450.0
1774430697.6365,119,4248.205,4255.385,4141.538,4161.026,4235.897,16189.0
1774430697.6444,120,4232.308,4228.205,4150.769,4151.795,4228.205,450.0
1774430697.6523,121,4233.333,4193.333,4161.026,4155.385,4205.128,450.0
1774430697.6602,122,4222.051,4205.641,4140.0,4154.359,4213.846,450.0
1774430697.668,123,4234.359,4209.231,4139.487,4147.179,4229.744,16189.0
1774430697.6759,124,4260.0,4204.103,4166.667,4159.487,4238.974,450.0
1774430697.6837,125,4235.385,4227.179,4165.641,4154.359,4235.385,450.0
1774430697.6916,126,4220.0,4204.615,4157.436,4135.897,4228.205,450.0
1774430697.6994,127,4257.436,4145.128,4175.897,4155.385,4238.462,242.0
1774430697.7074,0,4262.051,4181.026,4175.897,4176.41,4236.923,450.0
1774430697.7152,1,4229.744,4237.436,4155.897,4150.769,4217.436,450.0
1774430697.7231,2,4238.462,4189.231,4138.974,4123.59,4213.333,16206.0
1774430697.731,3,4248.718,4180.0,4116.923,4126.154,4215.385,450.0
1774430697.7388,4,4221.026,4255.385,4114.359,4134.359,4208.205,16167.0
1774430697.7467,5,4212.308,4239.487,4121.026,4136.41,4219.487,450.0
1774430697.7546,6,4223.077,4183.59,4114.359,4140.513,4226.154,16156.0
1774430697.7625,7,4212.308,4209.231,4122.051,4139.487,4202.051,450.0
1774430697.7703,8,4212.308,4218.462,4134.359,4142.564,4204.103,450.0
1774430697.7782,9,4245.128,4196.41,4133.333,4161.026,4236.41,16193.0
1774430697.786,10,4252.821,4224.615,4145.641,4154.359,4239.487,450.0
1774430697.7939,11,4232.308,4222.051,4160.0,4128.718,4219.487,16198.0
1774430697.8017,12,4238.974,4192.821,4151.282,4143.077,4228.718,450.0
1774430697.8097,13,4245.128,4232.821,4144.615,4158.462,4240.513,450.0
1774430697.8175,14,4230.769,4256.923,4154.359,4136.41,4228.205,450.0
1774430697.8254,15,4231.795,4220.513,4149.231,4142.051,4228.718,16198.0
1774430697.8332,16,4226.154,4215.897,4126.154,4154.872,4232.821,0.0
1774430697.841,17,4205.128,4247.179,4127.692,4124.103,4219.487,0.0
1774430697.8489,18,4226.667,4238.974,4150.256,4123.59,4221.026,0.0
1774430697.8568,19,4256.41,4233.333,4153.846,4157.436,4248.205,0.0
1774430697.8647,20,4242.051,4268.205,4153.333,4148.205,4253.333,0.0
1774430697.8726,21,4240.513,4249.744,4178.974,4134.872,4224.103,0.0
1774430697.8805,22,4271.282,4200.0,4200.0,4162.051,4220.0,0.0
1774430697.8883,23,4271.282,4225.641,4176.41,4177.436,4260.513,0.0
1774430697.8962,24,4233.846,4262.564,4146.667,4155.897,4271.282,0.0
1774430697.904,25,4221.538,4217.436,4146.667,4135.897,4229.744,0.0
1774430697.9119,26,4241.538,4187.692,4135.385,4142.564,4219.487,0.0
1774430697.9198,27,4250.769,4237.949,4118.974,4154.872,4255.897,0.0
1774430697.9277,28,4253.333,4251.795,4142.051,4152.308,4247.179,0.0
1774430697.9355,29,4243.077,4220.513,4158.974,4142.564,4212.308,0.0
1774430697.9433,30,4222.564,4245.641,4141.538,4143.59,4241.026,0.0
1774430697.9512,31,4231.282,4284.103,4154.359,4142.564,4266.154,0.0
1774430697.959,32,4257.436,4272.308,4193.333,4138.462,4231.795,0.0
1774430697.967,33,4256.923,4263.59,4173.846,4155.897,4233.846,0.0
1774430697.9749,34,4233.846,4280.513,4132.308,4165.128,4261.538,0.0
1774430697.9827,35,4223.077,4271.795,4145.641,4145.128,4225.128,0.0
1774430697.9905,36,4230.256,4260.0,4166.667,4142.564,4192.821,0.0
1774430697.9984,37,4234.359,4273.333,4161.538,4165.128,4220.0,0.0
1774430698.0063,38,4216.41,4272.308,4170.256,4156.41,4221.026,0.0
1774430698.0141,39,4209.231,4273.846,4175.897,4131.282,4195.385,0.0
1774430698.0221,40,4244.615,4298.462,4163.077,4152.308,4217.436,0.0
1774430698.03,41,4251.282,4290.769,4152.821,4169.231,4235.897,0.0
1774430698.0378,42,4225.128,4245.128,4149.744,4145.128,4217.436,0.0
1774430698.0456,43,4234.359,4246.667,4136.923,4152.821,4235.385,0.0
1774430698.0535,44,4238.974,4288.718,4122.051,4170.769,4255.385,0.0
1774430698.0613,45,4217.436,4275.897,4135.385,4142.564,4225.128,0.0
1774430698.0692,46,4229.231,4230.256,4147.179,4141.538,4218.974,0.0
1774430698.0771,47,4241.026,4227.692,4127.692,4164.615,4240.0,0.0
1774430698.085,48,4217.436,4253.846,4126.154,4141.538,4213.333,0.0
1774430698.0928,49,4227.179,4245.128,4145.128,4139.487,4184.103,0.0
1774430698.1007,50,4254.359,4215.385,4142.564,4172.821,4215.897,0.0
1774430698.1085,51,4233.846,4222.051,4139.487,4148.205,4236.41,0.0
1774430698.1164,52,4219.487,4253.846,4147.692,4114.359,4212.821,0.0
1774430698.1244,53,4235.385,4282.564,4127.692,4148.718,4208.205,0.0
1774430698.1322,54,4224.615,4262.564,4102.564,4155.897,4209.744,0.0
1774430698.14,55,4210.769,4211.282,4123.59,4121.026,4194.359,0.0
1774430698.1478,56,4236.41,4233.333,4143.077,4146.154,4209.744,0.0
1774430698.1557,57,4243.077,4274.359,4131.795,4184.103,4229.231,0.0
1774430698.1635,58,4224.103,4223.077,4145.128,4160.0,4213.333,0.0
1774430698.1714,59,4241.538,4195.897,4160.513,4148.205,4221.538,0.0
1774430698.1793,60,4249.744,4236.41,4139.487,4171.282,4238.462,0.0
1774430698.1872,61,4235.385,4212.308,4140.0,4165.128,4213.846,0.0
1774430698.195,62,4249.231,4180.0,4153.846,4147.179,4204.103,0.0
1774430698.2029,63,4260.513,4221.026,4133.333,4155.897,4226.667,0.0
1774430698.2107,64,4244.615,4239.487,4128.718,4154.359,4215.897,450.0
1774430698.2186,65,4242.564,4216.41,4148.718,4135.897,4188.205,450.0
1774430698.2264,66,4250.769,4215.897,4130.256,4142.564,4202.051,16206.0
1774430698.2344,67,4238.462,4200.0,4115.385,4149.744,4220.0,450.0
1774430698.2422,68,4232.308,4182.051,4149.744,4142.051,4207.179,16185.0
1774430698.2501,69,4222.051,4218.462,4154.359,4145.641,4203.59,450.0
1774430698.2579,70,4204.103,4230.256,4131.282,4150.256,4214.872,16149.0
1774430698.2658,71,4218.462,4210.769,4144.103,4151.795,4224.615,450.0
1774430698.2736,72,4229.231,4238.462,4149.744,4155.385,4229.231,450.0
1774430698.2815,73,4213.333,4260.0,4137.436,4150.256,4213.846,16185.0
1774430698.2894,74,4214.359,4225.128,4126.667,4143.077,4192.821,450.0
1774430698.2973,75,4220.0,4208.205,4111.282,4141.026,4202.564,16195.0
1774430698.3051,76,4211.795,4221.538,4125.641,4141.026,4221.538,450.0
1774430698.313,77,4221.538,4202.051,4140.0,4150.256,4218.974,450.0
1774430698.3209,78,4225.128,4200.513,4118.974,4152.821,4212.308,450.0
1774430698.3287,79,4213.846,4230.256,4125.641,4146.154,4208.718,16195.0
1774430698.3367,80,4225.128,4223.59,4142.051,4148.718,4205.641,450.0
1774430698.3445,81,4238.974,4216.41,4122.051,4155.385,4213.846,450.0
1774430698.3524,82,4225.641,4225.128,4116.923,4152.821,4210.256,450.0
1774430698.3602,83,4218.462,4219.487,4130.769,4148.718,4203.077,16195.0
1774430698.3681,84,4242.051,4249.231,4116.41,4157.949,4230.769,450.0
1774430698.3759,85,4249.744,4280.513,4105.641,4163.59,4246.667,450.0
1774430698.3838,86,4232.821,4228.718,4124.615,4152.308,4222.051,450.0
1774430698.3917,87,4226.154,4203.59,4125.641,4158.462,4217.436,16195.0
1774430698.3996,88,4228.205,4248.718,4111.282,4173.333,4220.513,450.0
1774430698.4074,89,4231.282,4237.436,4109.744,4167.179,4212.308,450.0
1774430698.4153,90,4228.718,4216.41,4109.231,4154.359,4218.974,450.0
1774430698.4231,91,4218.974,4254.872,4107.179,4157.436,4215.385,16195.0
1774430698.431,92,4223.59,4273.333,4098.462,4162.564,4195.897,450.0
1774430698.4388,93,4233.333,4244.615,4093.333,4154.872,4198.974,450.0
1774430698.4468,94,4227.179,4227.179,4112.308,4136.923,4201.538,450.0
1774430698.4546,95,4217.436,4242.564,4117.436,4135.385,4195.897,16195.0
1774430698.4625,96,4214.359,4265.128,4096.41,4143.077,4206.667,450.0
1774430698.4704,97,4219.487,4240.513,4094.872,4140.0,4208.718,450.0
1774430698.4782,98,4232.308,4211.282,4111.795,4151.282,4207.179,450.0
1774430698.4861,99,4229.231,4242.564,4117.436,4166.154,4226.154,16195.0
1774430698.4939,100,4220.0,4255.897,4109.744,4150.769,4208.718,450.0
1774430698.5019,101,4233.333,4235.385,4112.821,4142.051,4181.026,450.0
1774430698.5097,102,4244.615,4241.538,4137.436,4149.744,4202.564,450.0
1774430698.5176,103,4242.051,4225.641,4153.333,4143.077,4223.077,16195.0
1774430698.5254,104,4246.667,4202.564,4138.462,4148.718,4221.538,450.0
1774430698.5333,105,4235.385,4237.949,4125.128,4156.923,4212.821,450.0
1774430698.5411,106,4214.872,4252.308,4127.692,4134.359,4195.385,450.0
1774430698.5491,107,4224.615,4219.487,4110.769,4134.359,4210.256,16195.0
1774430698.5569,108,4231.795,4221.026,4097.436,4155.897,4225.641,450.0
1774430698.5648,109,4213.846,4217.436,4124.615,4140.0,4186.667,450.0
1774430698.5726,110,4219.487,4197.949,4130.769,4128.718,4183.59,450.0
1774430698.5805,111,4242.051,4222.564,4110.256,4149.231,4234.872,16195.0
1774430698.5883,112,4241.026,4248.205,4130.769,4157.436,4235.897,450.0
1774430698.5962,113,4220.513,4228.205,4138.974,4150.256,4206.154,450.0
1774430698.6041,114,4208.205,4220.513,4105.128,4145.641,4198.462,450.0
1774430698.612,115,4217.949,4245.128,4112.821,4146.667,4195.385,16195.0
1774430698.6198,116,4233.846,4261.538,4138.462,4161.538,4203.59,450.0
1774430698.6277,117,4237.436,4268.205,4113.333,4167.692,4224.615,450.0
1774430698.6356,118,4231.282,4254.359,4096.923,4146.154,4217.436,450.0
1774430698.6434,119,4233.846,4226.667,4128.718,4138.974,4209.744,16195.0
1774430698.6513,120,4235.897,4241.026,4129.231,4152.821,4231.282,450.0
1774430698.6592,121,4216.41,4264.615,4107.692,4145.641,4217.949,450.0
1774430698.667,122,4214.359,4249.744,4130.256,4144.615,4190.769,450.0
1774430698.6749,123,4234.872,4249.744,4132.821,4158.462,4216.923,16195.0
1774430698.6827,124,4233.333,4277.436,4104.615,4144.103,4232.308,450.0
1774430698.6906,125,4233.333,4280.0,4110.769,4140.513,4207.692,450.0
1774430698.6985,126,4247.179,4281.538,4119.487,4164.615,4211.282,450.0
1774430698.7064,127,4226.154,4296.923,4104.615,4157.949,4227.179,242.0
1774430698.7143,0,4194.359,4279.487,4089.231,4132.308,4198.462,450.0
1774430698.7221,1,4209.744,4261.026,4081.538,4126.667,4175.897,450.0
1774430698.73,2,4238.974,4281.538,4101.538,4134.359,4204.103,16204.0
1774430698.7378,3,4247.692,4273.846,4135.385,4147.179,4229.231,450.0
1774430698.7457,4,4247.692,4243.59,4129.231,4158.462,4220.0,16176.0
1774430698.7535,5,4239.487,4256.41,4109.231,4144.615,4200.0,450.0
1774430698.7615,6,4223.077,4255.385,4117.436,4126.667,4191.795,16156.0
1774430698.7693,7,4231.795,4229.231,4116.41,4138.462,4210.256,450.0
1774430698.7771,8,4250.256,4261.026,4104.615,4154.872,4239.487,450.0
1774430698.785,9,4229.744,4285.128,4113.846,4144.615,4227.692,16189.0
1774430698.7929,10,4220.0,4237.949,4108.205,4132.308,4200.513,450.0
1774430698.8007,11,4244.103,4237.949,4095.385,4142.564,4214.359,16195.0
1774430698.8085,12,4254.359,4291.282,4115.385,4155.897,4230.769,450.0
1774430698.8164,13,4257.436,4256.923,4125.641,4152.821,4212.308,450.0
1774430698.8243,14,4264.103,4190.256,4104.615,4146.667,4208.205,450.0
1774430698.8321,15,4250.256,4220.0,4101.026,4143.077,4229.744,16195.0
1774430698.84,16,4247.692,4264.615,4123.59,4151.282,4233.333,0.0
1774430698.8478,17,4274.872,4254.359,4129.231,4171.282,4231.282,0.0
1774430698.8557,18,4253.846,4264.103,4111.282,4166.667,4233.846,0.0
1774430698.8635,19,4214.872,4298.462,4118.462,4141.538,4230.256,0.0
1774430698.8715,20,4241.538,4283.59,4132.308,4149.231,4222.051,0.0
1774430698.8794,21,4254.872,4259.487,4108.205,4165.128,4214.872,0.0
1774430698.8872,22,4214.359,4283.077,4094.872,4154.872,4221.538,0.0
1774430698.8951,23,4207.692,4301.538,4111.795,4154.872,4236.923,0.0
1774430698.9029,24,4234.872,4282.051,4118.974,4168.718,4235.385,0.0
1774430698.9108,25,4214.872,4237.949,4120.0,4151.282,4204.103,0.0
1774430698.9187,26,4194.872,4203.59,4120.0,4139.487,4188.205,0.0
1774430698.9266,27,4226.154,4231.282,4114.359,4167.692,4217.436,0.0
1774430698.9344,28,4238.974,4250.769,4124.103,4176.41,4229.744,0.0
1774430698.9423,29,4218.974,4201.538,4132.308,4157.436,4210.256,0.0
1774430698.9501,30,4221.538,4207.179,4115.385,4161.538,4220.513,0.0
1774430698.958,31,4247.179,4265.128,4121.538,4167.692,4239.487,0.0
1774430698.9658,32,4255.897,4243.59,4159.487,4163.59,4233.846,0.0
1774430698.9738,33,4250.256,4231.795,4157.436,4180.0,4254.359,0.0
1774430698.9816,34,4248.718,4280.513,4134.872,4183.077,4269.231,0.0
1774430698.9895,35,4240.513,4276.923,4157.949,4158.974,4231.795,0.0
1774430698.9973,36,4229.744,4258.974,4167.692,4161.538,4209.744,0.0
1774430699.0052,37,4233.846,4292.308,4142.564,4181.538,4232.821,0.0
1774430699.013,38,4254.872,4307.179,4151.795,4180.513,4247.692,0.0
1774430699.0209,39,4274.872,4278.462,4172.821,4173.333,4242.564,0.0
1774430699.0288,40,4285.641,4267.692,4161.026,4180.0,4252.821,0.0
1774430699.0367,41,4277.436,4288.205,4135.385,4179.487,4262.564,0.0
1774430699.0445,42,4258.974,4302.051,4137.949,4171.282,4254.359,0.0
1774430699.0524,43,4260.0,4295.385,4167.179,4180.513,4247.692,0.0
1774430699.0603,44,4270.769,4287.179,4168.718,4193.846,4238.462,0.0
1774430699.0681,45,4269.231,4285.128,4140.0,4190.769,4236.923,0.0
1774430699.076,46,4257.436,4268.718,4134.359,4176.41,4249.744,0.0
1774430699.0839,47,4253.846,4254.872,4158.974,4162.051,4248.718,0.0
1774430699.0918,48,4268.718,4268.205,4172.308,4164.103,4241.538,0.0
1774430699.0996,49,4276.923,4282.051,4154.872,4186.154,4252.821,0.0
1774430699.1075,50,4262.564,4276.41,4137.949,4194.872,4264.615,0.0
1774430699.1153,51,4256.923,4269.744,4147.179,4177.436,4262.051,0.0
1774430699.1232,52,4261.026,4271.282,4159.487,4158.974,4248.205,0.0
1774430699.1311,53,4254.359,4273.846,4147.179,4161.538,4227.692,0.0
1774430699.139,54,4251.795,4289.744,4127.692,4171.282,4235.385,0.0
1774430699.1468,55,4258.974,4309.744,4132.821,4168.205,4261.538,0.0
1774430699.1547,56,4269.744,4300.0,4154.359,4165.128,4254.872,0.0
1774430699.1625,57,4281.026,4277.436,4161.538,4167.692,4237.949,0.0
1774430699.1704,58,4274.872,4287.692,4144.615,4172.821,4257.436,0.0
1774430699.1782,59,4250.769,4306.667,4132.308,4177.436,4268.205,0.0
1774430699.1862,60,4255.897,4296.923,4152.821,4172.821,4250.256,0.0
1774430699.194,61,4286.667,4279.487,4176.923,4181.026,4244.103,0.0
1774430699.2019,62,4282.051,4287.179,4161.538,4192.821,4250.256,0.0
1774430699.2097,63,4266.667,4313.333,4137.949,4176.923,4256.923,0.0
1774430699.2176,64,4276.41,4329.231,4150.256,4161.538,4250.256,450.0
1774430699.2254,65,4281.538,4324.103,4187.179,4171.795,4241.538,450.0
1774430699.2333,66,4275.897,4315.897,4201.026,4181.538,4254.359,16205.0
1774430699.2413,67,4285.641,4306.154,4177.436,4182.051,4271.282,450.0
1774430699.2491,68,4283.077,4301.538,4157.436,4182.564,4254.872,16187.0
1774430699.257,69,4260.513,4310.256,4156.41,4170.256,4231.795,450.0
1774430699.2648,70,4268.718,4314.872,4166.154,4156.41,4237.949,16141.0
1774430699.2727,71,4294.872,4309.231,4174.872,4169.744,4250.769,450.0
1774430699.2805,72,4289.744,4312.308,4164.615,4181.026,4252.821,450.0
1774430699.2884,73,4280.0,4327.179,4163.077,4181.538,4258.974,16196.0
1774430699.2963,74,4287.692,4340.513,4178.462,4193.846,4273.333,450.0
1774430699.3042,75,4280.0,4337.436,4184.103,4197.436,4270.769,16202.0
1774430699.312,76,4272.821,4329.744,4176.923,4173.846,4248.205,450.0
1774430699.3199,77,4276.41,4330.769,4152.821,4159.487,4228.205,450.0
1774430699.3277,78,4270.256,4341.538,4137.949,4175.385,4227.179,450.0
1774430699.3356,79,4275.897,4346.667,4161.026,4192.821,4253.846,16202.0
1774430699.3435,80,4293.333,4328.205,4189.231,4186.667,4272.821,450.0
1774430699.3514,81,4294.872,4301.026,4188.718,4180.0,4266.154,450.0
1774430699.3593,82,4294.359,4304.103,4168.205,4201.538,4262.051,450.0
1774430699.3671,83,4294.872,4310.769,4156.41,4211.795,4263.077,16202.0
1774430699.375,84,4294.53,4310.655,4158.348,4206.61,4261.311,14451.778
1774430699.3828,85,4294.188,4310.541,4160.285,4201.425,4259.544,12701.556
1774430699.3906,86,4293.846,4310.427,4162.222,4196.239,4257.778,10951.333
1774430699.3985,87,4293.504,4310.313,4164.16,4191.054,4256.011,9201.111
1774430699.4063,88,4293.162,4310.199,4166.097,4185.869,4254.245,7450.889
1774430699.4141,89,4292.821,4310.085,4168.034,4180.684,4252.479,5700.667
1774430699.4219,90,4292.479,4309.972,4169.972,4175.499,4250.712,3950.444
1774430699.4297,91,4292.137,4309.858,4171.909,4170.313,4248.946,2200.222
1774430699.4375,92,4291.795,4309.744,4173.846,4165.128,4247.179,450.0
1774430699.4452,93,4291.282,4305.641,4168.718,4173.333,4244.615,450.0
1774430699.4531,94,4247.179,4309.231,4155.385,4171.282,4225.641,450.0
1774430699.4609,95,4241.538,4303.59,4144.103,4163.59,4240.513,16202.0
1774430699.4687,96,4282.051,4280.0,4149.744,4169.744,4265.641,450.0
1774430699.4764,97,4297.436,4267.692,4149.231,4177.436,4252.308,450.0
1774430699.4842,98,4280.0,4285.128,4133.846,4181.538,4249.744,450.0
1774430699.4919,99,4281.538,4309.744,4136.923,4200.0,4284.615,16202.0
1774430699.4996,100,4293.333,4327.179,4151.795,4204.103,4293.846,450.0
1774430699.5075,101,4279.487,4331.795,4149.231,4175.897,4254.359,450.0
1774430699.5153,102,4267.179,4312.308,4138.974,4162.051,4227.179,450.0
1774430699.523,103,4278.974,4292.821,4133.333,4181.026,4250.256,16202.0
1774430699.5307,104,4275.385,4305.128,4132.308,4191.282,4268.205,450.0
1774430699.5385,105,4241.538,4325.641,4138.462,4170.256,4240.513,450.0
1774430699.5462,106,4248.205,4306.667,4160.0,4164.103,4236.41,450.0
1774430699.554,107,4304.615,4276.923,4184.103,4192.308,4278.462,16202.0
1774430699.5618,108,4316.41,4280.513,4175.897,4202.051,4281.026,450.0
1774430699.5695,109,4277.949,4283.077,4150.256,4184.615,4246.154,450.0
1774430699.5773,110,4266.667,4281.538,4147.692,4176.923,4247.692,450.0
1774430699.5851,111,4287.179,4286.154,4163.077,4180.0,4263.59,16202.0
1774430699.5928,112,4300.513,4283.59,4173.846,4183.59,4253.846,450.0
1774430699.6006,113,4289.231,4274.359,4161.538,4189.231,4242.564,450.0
1774430699.6083,114,4265.128,4268.718,4142.051,4182.051,4245.641,450.0
1774430699.6162,115,4256.41,4285.641,4146.667,4174.872,4252.308,16202.0
1774430699.6239,116,4261.026,4300.513,4171.795,4176.41,4238.462,450.0
1774430699.6317,117,4274.872,4301.026,4183.077,4180.0,4228.718,450.0
1774430699.6394,118,4295.897,4294.872,4166.667,4193.333,4255.385,450.0
1774430699.6472,119,4297.436,4278.462,4151.795,4191.282,4268.718,16202.0
1774430699.6549,120,4264.615,4283.077,4143.077,4167.179,4237.949,450.0
1774430699.6628,121,4232.308,4295.385,4142.564,4150.256,4209.744,450.0
1774430699.6705,122,4240.0,4279.487,4153.333,4156.923,4222.051,450.0
1774430699.6782,123,4263.077,4261.538,4142.564,4181.538,4239.487,16202.0
1774430699.686,124,4258.462,4269.744,4125.128,4192.821,4224.615,450.0
1774430699.6937,125,4245.128,4261.538,4130.256,4167.692,4206.154,450.0
1774430699.7015,126,4255.385,4210.769,4141.026,4145.128,4207.179,450.0
1774430699.7092,127,4258.462,4196.923,4139.487,4170.256,4222.564,242.0
1774430699.7171,0,4238.462,4251.795,4129.744,4188.205,4231.795,450.0
1774430699.7248,1,4233.846,4277.436,4128.205,4162.564,4230.256,450.0
1774430699.7326,2,4253.846,4226.154,4139.487,4158.462,4225.128,16198.0
1774430699.7403,3,4261.538,4214.359,4137.949,4184.103,4221.538,450.0
1774430699.7481,4,4252.308,4277.949,4120.513,4187.692,4229.744,16181.0
1774430699.7558,5,4247.179,4268.205,4118.974,4164.103,4225.641,450.0
1774430699.7636,6,4240.0,4209.231,4124.103,4152.821,4198.974,16144.0
1774430699.7714,7,4235.385,4251.282,4115.897,4169.231,4200.513,450.0
1774430699.7792,8,4237.949,4299.487,4116.923,4173.846,4225.641,450.0
1774430699.7869,9,4244.615,4246.154,4142.051,4156.923,4228.205,16190.0
1774430699.7947,10,4252.821,4207.179,4138.974,4168.718,4224.103,450.0
1774430699.8024,11,4242.564,4225.128,4115.897,4189.231,4226.667,16205.0
1774430699.8101,12,4227.179,4221.026,4131.795,4170.256,4216.41,450.0
1774430699.8179,13,4237.436,4201.026,4141.538,4161.026,4214.359,450.0
1774430699.8257,14,4262.051,4205.128,4128.718,4186.154,4231.795,450.0
1774430699.8335,15,4254.872,4207.179,4147.692,4180.0,4219.487,16205.0
1774430699.8413,16,4231.795,4197.436,4167.692,4160.513,4198.462,0.0
1774430699.849,17,4246.154,4200.0,4138.974,4182.564,4231.282,0.0
1774430699.8567,18,4263.077,4206.667,4122.564,4187.692,4261.026,0.0
1774430699.8645,19,4245.641,4216.41,4154.359,4161.538,4242.564,0.0
1774430699.8722,20,4243.59,4234.359,4152.308,4168.718,4226.154,0.0
1774430699.8801,21,4253.846,4239.487,4115.385,4177.949,4221.538,0.0
1774430699.8878,22,4242.564,4220.513,4123.59,4158.462,4217.436,0.0
1774430699.8956,23,4242.564,4198.462,4141.538,4153.333,4226.667,0.0
1774430699.9033,24,4250.769,4200.0,4129.231,4164.615,4231.282,0.0
1774430699.9111,25,4231.795,4227.179,4138.462,4161.026,4221.026,0.0
1774430699.9188,26,4228.718,4235.385,4168.205,4159.487,4218.462,0.0
1774430699.9266,27,4261.026,4210.256,4162.051,4175.897,4229.744,0.0
1774430699.9344,28,4261.538,4224.615,4133.333,4181.026,4234.872,0.0
1774430699.9422,29,4246.154,4257.436,4135.385,4172.308,4232.308,0.0
1774430699.9499,30,4250.256,4234.359,4150.256,4182.564,4228.205,0.0
1774430699.9576,31,4236.923,4228.718,4141.538,4190.769,4230.256,0.0
1774430699.9654,32,4217.436,4262.564,4139.487,4168.718,4235.385,0.0
1774430699.9731,33,4237.436,4226.154,4154.872,4156.41,4216.41,0.0
1774430699.9809,34,4266.154,4189.231,4154.359,4173.846,4204.103,0.0
1774430699.9888,35,4251.282,4251.282,4135.897,4178.462,4234.359,0.0
1774430699.9965,36,4221.026,4275.897,4135.897,4154.872,4233.846,0.0
1774430700.0043,37,4234.872,4217.949,4153.846,4142.051,4190.256,0.0
1774430700.012,38,4268.718,4232.308,4153.846,4164.615,4208.205,0.0
1774430700.0197,39,4251.795,4296.41,4146.154,4182.564,4252.308,0.0
1774430700.0275,40,4228.718,4281.026,4164.615,4165.641,4233.846,0.0
1774430700.0352,41,4267.692,4229.231,4177.436,4165.128,4220.513,0.0
1774430700.0431,42,4288.718,4212.821,4165.641,4186.154,4245.128,0.0
1774430700.0508,43,4256.41,4223.59,4162.564,4175.385,4245.641,0.0
1774430700.0586,44,4236.923,4234.359,4170.256,4153.333,4223.59,0.0
1774430700.0663,45,4248.205,4233.846,4162.051,4157.436,4217.949,0.0
1774430700.0741,46,4253.846,4240.513,4134.872,4153.846,4224.103,0.0
1774430700.0818,47,4248.205,4263.59,4125.128,4140.513,4229.231,0.0
1774430700.0896,48,4260.0,4277.949,4146.667,4167.179,4244.103,0.0
1774430700.0974,49,4273.333,4273.333,4147.692,4196.923,4261.026,0.0
1774430700.1052,50,4264.615,4275.897,4131.795,4181.538,4262.564,0.0
1774430700.1129,51,4251.282,4263.59,4143.077,4151.795,4235.385,0.0
1774430700.1207,52,4248.718,4248.718,4154.872,4152.308,4206.154,0.0
1774430700.1284,53,4247.179,4282.564,4136.923,4171.795,4218.462,0.0
1774430700.1362,54,4234.872,4295.897,4128.718,4162.564,4234.359,0.0
1774430700.1439,55,4228.205,4243.59,4151.282,4134.359,4220.513,0.0
1774430700.1518,56,4230.769,4242.051,4147.179,4146.667,4227.179,0.0
1774430700.1595,57,4233.333,4305.641,4129.231,4173.846,4252.308,0.0
1774430700.1672,58,4241.538,4293.846,4147.179,4163.077,4235.897,0.0
1774430700.175,59,4257.949,4222.051,4151.282,4153.846,4204.103,0.0
1774430700.1827,60,4266.667,4231.282,4133.846,4177.949,4224.103,0.0
1774430700.1905,61,4252.821,4284.103,4140.0,4185.128,4257.949,0.0
1774430700.1983,62,4235.385,4275.897,4153.846,4156.923,4244.615,0.0
1774430700.2061,63,4240.513,4250.256,4152.308,4153.846,4218.974,0.0
1774430700.2139,64,4249.744,4266.667,4136.923,4173.846,4224.103,450.0
1774430700.2216,65,4241.538,4280.0,4125.641,4167.692,4239.487,450.0
1774430700.2293,66,4253.333,4253.333,4141.026,4162.564,4243.59,16210.0
1774430700.2371,67,4278.462,4233.846,4156.41,4178.974,4243.59,450.0
1774430700.2448,68,4261.026,4265.641,4145.641,4186.154,4242.564,16185.0
1774430700.2526,69,4234.872,4291.795,4141.026,4177.436,4232.821,450.0
1774430700.2604,70,4241.538,4270.769,4149.744,4160.0,4215.897,16141.0
1774430700.2682,71,4251.795,4267.179,4133.333,4158.462,4218.974,450.0
1774430700.2759,72,4242.051,4299.487,4108.205,4171.795,4232.308,450.0
1774430700.2837,73,4226.667,4305.128,4124.615,4158.462,4220.0,16182.0
1774430700.2914,74,4231.795,4289.744,4147.692,4138.974,4203.59,450.0
1774430700.2991,75,4235.897,4290.769,4138.462,4149.231,4209.231,16201.0
1774430700.307,76,4212.821,4310.256,4132.821,4151.282,4208.205,450.0
1774430700.3148,77,4211.282,4305.128,4145.128,4142.564,4197.949,450.0
1774430700.3225,78,4249.744,4268.205,4147.179,4156.41,4212.308,450.0
1774430700.3303,79,4255.385,4272.308,4142.564,4168.205,4237.436,16201.0
1774430700.338,80,4237.949,4303.077,4161.026,4164.103,4237.949,450.0
1774430700.3458,81,4256.923,4285.128,4176.41,4171.795,4225.128,450.0
1774430700.3535,82,4259.487,4267.179,4146.154,4178.462,4222.051,450.0
1774430700.3614,83,4229.231,4286.667,4119.487,4168.205,4235.897,16201.0
1774430700.3691,84,4230.256,4280.513,4141.026,4168.205,4243.077,450.0
1774430700.3769,85,4248.205,4270.256,4158.974,4183.59,4232.308,450.0
1774430700.3846,86,4245.128,4305.128,4138.462,4179.487,4240.513,450.0
1774430700.3924,87,4238.974,4305.641,4133.846,4157.949,4248.718,16201.0
1774430700.4001,88,4241.538,4267.692,4152.821,4152.821,4223.59,450.0
1774430700.4078,89,4238.462,4288.205,4138.462,4163.59,4219.487,450.0
1774430700.4157,90,4227.692,4320.0,4117.436,4153.846,4236.923,450.0
1774430700.4234,91,4224.103,4277.436,4139.487,4141.026,4225.641,16201.0
1774430700.4311,92,4233.846,4249.231,4144.615,4154.359,4213.846,450.0
1774430700.4389,93,4232.821,4265.641,4108.718,4153.333,4218.462,450.0
1774430700.4467,94,4229.744,4248.205,4118.974,4138.462,4213.333,450.0
1774430700.4544,95,4246.154,4230.256,4167.179,4162.051,4220.513,16201.0
1774430700.4622,96,4252.308,4256.41,4169.231,4197.436,4240.513,450.0
1774430700.4701,97,4226.154,4255.385,4144.103,4175.385,4222.051,450.0
1774430700.4778,98,4210.256,4243.077,4148.718,4141.538,4201.538,450.0
1774430700.4855,99,4230.769,4286.154,4150.769,4159.487,4235.385,16201.0
1774430700.4933,100,4247.692,4303.077,4136.41,4180.513,4253.846,450.0
1774430700.501,101,4235.897,4256.923,4144.615,4160.513,4217.436,450.0
1774430700.5088,102,4217.436,4259.487,4135.897,4145.641,4198.462,450.0
1774430700.5165,103,4218.462,4295.897,4110.769,4153.333,4214.359,16201.0
1774430700.5244,104,4247.179,4278.462,4131.282,4158.462,4225.641,450.0
1774430700.5321,105,4256.923,4272.308,4138.974,4159.487,4231.282,450.0
1774430700.5399,106,4227.692,4307.692,4113.846,4161.026,4219.487,450.0
1774430700.5476,107,4221.538,4289.231,4118.462,4155.385,4187.692,16201.0
1774430700.5554,108,4238.462,4265.641,4124.615,4142.564,4197.949,450.0
1774430700.5631,109,4231.282,4307.179,4108.205,4135.385,4236.923,450.0
1774430700.5709,110,4227.692,4309.744,4118.974,4132.821,4222.564,450.0
1774430700.5787,111,4250.769,4267.179,4147.179,4132.821,4190.256,16201.0
1774430700.5864,112,4265.641,4294.872,4133.846,4150.256,4224.103,450.0
1774430700.5942,113,4245.641,4331.795,4106.667,4150.769,4246.154,450.0
1774430700.6019,114,4226.154,4302.564,4128.205,4131.282,4210.769,450.0
1774430700.6097,115,4242.051,4273.333,4151.282,4150.769,4203.077,16201.0
1774430700.6174,116,4255.385,4283.077,4133.846,4181.026,4225.128,450.0
1774430700.6252,117,4241.538,4298.462,4130.256,4158.974,4227.179,450.0
1774430700.633,118,4239.487,4278.462,4147.692,4140.513,4217.436,450.0
1774430700.6408,119,4254.359,4251.795,4149.744,4168.718,4209.744,16201.0
1774430700.6485,120,4240.513,4276.41,4145.128,4171.282,4209.231,450.0
1774430700.6563,121,4202.051,4283.077,4141.538,4144.103,4210.769,450.0
1774430700.664,122,4192.308,4235.897,4127.692,4152.308,4204.103,450.0
1774430700.6718,123,4209.744,4242.051,4116.923,4162.051,4195.385,16201.0
1774430700.6795,124,4231.795,4295.385,4134.359,4145.128,4197.436,450.0
1774430700.6874,125,4247.179,4285.641,4142.564,4147.692,4205.128,450.0
1774430700.6951,126,4233.846,4254.872,4119.487,4165.128,4213.333,450.0
1774430700.7029,127,4217.436,4267.179,4114.359,4154.872,4211.282,242.0
1774430700.7106,0,4219.487,4274.872,4136.923,4140.0,4197.436,450.0
1774430700.7183,1,4216.923,4266.154,4147.179,4151.282,4201.538,450.0
1774430700.7261,2,4216.923,4272.308,4144.103,4150.769,4213.333,16203.0
1774430700.7338,3,4238.974,4258.974,4144.103,4127.179,4187.692,450.0
1774430700.7417,4,4253.846,4245.128,4139.487,4130.769,4168.718,16167.0
1774430700.7494,5,4234.872,4281.538,4131.282,4157.436,4200.513,450.0
1774430700.7572,6,4213.846,4306.154,4127.179,4147.179,4218.974,16152.0
1774430700.7649,7,4226.154,4283.077,4123.077,4137.949,4206.667,450.0
1774430700.7727,8,4242.564,4288.205,4116.41,4161.538,4216.923,450.0
1774430700.7804,9,4216.41,4317.436,4121.538,4157.436,4230.256,16182.0
1774430700.7882,10,4197.949,4307.692,4132.308,4136.923,4204.103,450.0
1774430700.796,11,4238.462,4290.769,4139.487,4150.769,4184.615,16197.0
1774430700.8038,12,4261.538,4315.385,4141.026,4165.641,4207.692,450.0
1774430700.8115,13,4240.513,4321.538,4147.692,4148.205,4218.462,450.0
1774430700.8193,14,4235.385,4285.641,4161.538,4142.564,4207.692,450.0
1774430700.827,15,4241.538,4286.667,4145.641,4168.718,4216.41,16197.0
1774430700.8348,16,4237.436,4328.718,4118.462,4174.872,4214.359,0.0
1774430700.8425,17,4237.436,4321.026,4125.641,4142.564,4189.231,0.0
1774430700.8504,18,4244.103,4280.0,4138.462,4133.333,4191.795,0.0
1774430700.8581,19,4254.872,4305.641,4140.513,4167.179,4217.949,0.0
1774430700.8659,20,4252.821,4368.205,4145.641,4180.0,4216.41,0.0
1774430700.8736,21,4236.41,4362.051,4156.923,4156.41,4198.974,0.0
1774430700.8814,22,4244.615,4308.718,4164.615,4153.333,4206.154,0.0
1774430700.8891,23,4259.487,4323.59,4149.744,4168.205,4229.231,0.0
1774430700.8968,24,4248.718,4381.026,4129.231,4168.718,4235.897,0.0
1774430700.9047,25,4249.744,4357.436,4144.615,4164.615,4218.974,0.0
1774430700.9124,26,4262.051,4290.769,4152.308,4168.205,4206.667,0.0
1774430700.9202,27,4245.641,4301.026,4120.513,4171.795,4212.821,0.0
1774430700.9279,28,4223.59,4341.538,4121.026,4166.154,4205.128,0.0
1774430700.9357,29,4228.718,4310.256,4153.333,4151.795,4185.128,0.0
1774430700.9434,30,4239.487,4276.41,4141.538,4142.564,4196.41,0.0
1774430700.9513,31,4223.59,4305.641,4120.0,4144.103,4225.641,0.0
1774430700.9591,32,4216.923,4329.231,4149.744,4148.718,4226.154,0.0
1774430700.9668,33,4241.026,4293.846,4157.949,4152.821,4200.513,0.0
1774430700.9745,34,4242.564,4262.051,4130.769,4156.41,4193.333,0.0
1774430700.9823,35,4223.59,4294.872,4150.256,4164.615,4218.974,0.0
1774430700.99,36,4229.744,4321.026,4178.974,4166.154,4212.308,0.0
1774430700.9978,37,4241.538,4282.051,4163.59,4158.974,4182.051,0.0
1774430701.0057,38,4230.256,4267.692,4148.718,4156.41,4204.103,0.0
1774430701.0134,39,4220.0,4298.462,4161.026,4152.821,4228.205,0.0
1774430701.0211,40,4236.923,4293.846,4158.974,4160.513,4205.641,0.0
1774430701.0289,41,4240.0,4268.205,4144.615,4170.256,4198.462,0.0
1774430701.0366,42,4220.513,4275.385,4160.513,4155.385,4216.923,0.0
1774430701.0444,43,4221.026,4300.0,4165.641,4149.231,4218.974,0.0
1774430701.0521,44,4228.718,4310.769,4149.744,4164.103,4213.333,0.0
1774430701.0599,45,4226.667,4305.128,4163.077,4160.513,4196.41,0.0
1774430701.0677,46,4227.692,4303.59,4171.282,4148.718,4181.538,0.0
1774430701.0755,47,4214.872,4315.385,4150.769,4146.667,4197.436,0.0
1774430701.0832,48,4213.846,4322.564,4153.846,4146.154,4206.667,0.0
1774430701.091,49,4246.667,4332.821,4165.641,4162.051,4201.026,0.0
1774430701.0987,50,4248.205,4349.744,4156.923,4178.462,4218.462,0.0
1774430701.1065,51,4221.026,4323.077,4162.051,4164.615,4224.103,0.0
1774430701.1143,52,4229.231,4293.333,4173.333,4155.897,4197.949,0.0
1774430701.1221,53,4252.821,4329.231,4156.923,4168.718,4200.0,0.0
1774430701.1298,54,4242.051,4363.077,4149.231,4161.026,4220.0,0.0
1774430701.1376,55,4215.897,4341.026,4171.282,4141.538,4210.256,0.0
1774430701.1453,56,4208.718,4322.564,4163.59,4146.667,4206.667,0.0
1774430701.153,57,4227.179,4323.077,4143.59,4154.872,4226.154,0.0
1774430701.1608,58,4253.846,4309.744,4171.795,4157.949,4224.103,0.0
1774430701.1686,59,4259.487,4286.667,4202.051,4173.846,4207.692,0.0
1774430701.1764,60,4257.949,4288.205,4199.487,4189.744,4215.385,0.0
1774430701.1841,61,4247.692,4329.231,4186.667,4186.667,4225.641,0.0
1774430701.1919,62,4224.615,4336.923,4178.974,4168.205,4213.846,0.0
1774430701.1996,63,4219.487,4291.795,4175.897,4158.974,4203.59,0.0
1774430701.2074,64,4227.692,4295.385,4163.59,4161.026,4206.667,450.0
1774430701.2151,65,4231.795,4340.0,4162.564,4172.821,4220.0,450.0
1774430701.223,66,4240.513,4315.897,4183.59,4176.923,4223.59,16216.0
1774430701.2307,67,4249.744,4280.0,4180.0,4163.077,4209.744,450.0
1774430701.2385,68,4247.692,4331.282,4161.026,4167.179,4214.872,16182.0
1774430701.2462,69,4236.41,4350.769,4175.897,4175.385,4218.974,450.0
1774430701.254,70,4224.615,4290.769,4184.615,4153.333,4185.128,16162.0
1774430701.2617,71,4215.385,4282.051,4149.744,4140.0,4175.897,450.0
1774430701.2695,72,4212.821,4318.974,4139.487,4152.308,4207.692,450.0
1774430701.2773,73,4226.667,4302.051,4168.718,4155.385,4213.846,16190.0
1774430701.2851,74,4252.308,4285.128,4160.0,4166.154,4205.641,450.0
1774430701.2928,75,4250.769,4323.59,4136.923,4175.897,4215.897,16196.0
1774430701.3006,76,4221.538,4332.821,4158.462,4152.308,4204.103,450.0
1774430701.3083,77,4219.487,4291.282,4171.282,4143.077,4173.333,450.0
1774430701.316,78,4239.487,4278.974,4151.795,4164.615,4181.538,450.0
1774430701.3238,79,4243.077,4311.795,4157.949,4163.59,4212.821,16196.0
1774430701.3317,80,4242.051,4327.692,4185.128,4146.154,4224.615,450.0
1774430701.3394,81,4258.462,4314.872,4183.077,4156.923,4217.436,450.0
1774430701.3471,82,4261.026,4320.513,4155.385,4176.41,4211.282,450.0
1774430701.3549,83,4244.615,4342.051,4150.769,4178.974,4220.513,16196.0
1774430701.3626,84,4248.718,4338.462,4178.462,4171.282,4218.462,450.0
1774430701.3704,85,4255.385,4316.41,4188.718,4163.59,4205.641,450.0
1774430701.3781,86,4244.615,4321.538,4161.026,4168.718,4216.923,450.0
1774430701.386,87,4237.949,4329.744,4142.051,4157.436,4214.359,16196.0
1774430701.3937,88,4232.308,4315.897,4159.487,4125.128,4185.641,450.0
1774430701.4015,89,4226.667,4313.333,4164.615,4133.846,4198.974,450.0
1774430701.4092,90,4234.359,4325.128,4158.462,4168.205,4232.308,450.0
1774430701.417,91,4246.667,4340.513,4185.641,4161.538,4214.359,16196.0
1774430701.4247,92,4266.154,4338.462,4208.718,4151.282,4193.846,450.0
1774430701.4325,93,4287.692,4305.641,4191.282,4163.59,4217.949,450.0
1774430701.4403,94,4270.769,4300.0,4156.41,4162.051,4243.077,450.0
1774430701.4481,95,4232.821,4326.667,4148.205,4152.821,4225.641,16196.0
1774430701.4558,96,4234.359,4310.769,4172.821,4150.256,4189.744,450.0
1774430701.4636,97,4253.846,4289.744,4162.051,4145.641,4188.205,450.0
1774430701.4713,98,4243.077,4307.179,4123.077,4135.897,4207.692,450.0
1774430701.4791,99,4233.333,4296.41,4137.949,4124.615,4196.923,16196.0
1774430701.4868,100,4250.769,4273.333,4168.718,4130.769,4183.077,450.0
1774430701.4948,101,4264.103,4287.179,4158.974,4152.308,4208.718,450.0
1774430701.5026,102,4249.231,4289.744,4158.974,4154.872,4223.077,450.0
1774430701.5105,103,4245.128,4282.051,4182.564,4151.282,4212.308,16196.0
1774430701.5183,104,4270.256,4307.179,4180.0,4173.333,4228.205,450.0
1774430701.5262,105,4256.41,4325.128,4163.077,4176.41,4234.359,450.0
1774430701.534,106,4211.282,4304.103,4161.538,4144.103,4198.974,450.0
1774430701.542,107,4221.026,4296.41,4152.821,4133.846,4193.333,16196.0
1774430701.5498,108,4250.256,4320.513,4147.692,4143.077,4213.333,450.0
1774430701.5577,109,4241.538,4322.564,4167.179,4139.487,4205.128,450.0
1774430701.5655,110,4235.385,4280.0,4171.282,4141.026,4199.487,450.0
1774430701.5734,111,4253.333,4274.872,4169.744,4165.641,4219.487,16196.0
1774430701.5812,112,4260.513,4325.128,4194.359,4174.359,4228.205,450.0
1774430701.5891,113,4252.821,4316.41,4207.692,4153.846,4214.872,450.0
1774430701.597,114,4247.179,4277.949,4191.795,4155.385,4211.795,450.0
1774430701.6049,115,4243.077,4303.077,4172.821,4166.667,4221.538,16196.0
1774430701.6127,116,4242.564,4326.154,4160.513,4142.564,4212.821,450.0
1774430701.6206,117,4259.487,4291.282,4162.051,4136.41,4197.949,450.0
1774430701.6285,118,4272.821,4276.41,4159.487,4166.667,4205.128,450.0
1774430701.6363,119,4257.436,4297.436,4144.103,4176.923,4230.256,16196.0
1774430701.6441,120,4246.667,4291.282,4162.564,4165.128,4232.821,450.0
1774430701.6521,121,4260.513,4270.769,4192.821,4167.692,4216.41,450.0
1774430701.6599,122,4262.564,4263.59,4170.769,4183.59,4223.59,450.0
1774430701.6676,123,4244.615,4266.667,4145.641,4183.59,4234.872,16196.0
1774430701.6754,124,4232.308,4287.692,4171.795,4160.0,4225.641,450.0
1774430701.6831,125,4236.923,4295.385,4188.718,4149.231,4220.0,450.0
1774430701.6909,126,4245.128,4271.282,4158.974,4152.308,4223.077,450.0
1774430701.6986,127,4242.051,4276.41,4135.897,4146.667,4218.462,242.0
1774430701.7065,0,4231.795,4298.974,4145.641,4145.641,4208.205,450.0
1774430701.7142,1,4233.333,4276.923,4166.154,4149.231,4197.436,450.0
1774430701.7221,2,4242.051,4267.179,4160.0,4150.769,4209.231,16208.0
1774430701.7299,3,4237.436,4292.821,4145.128,4150.256,4220.0,450.0
1774430701.7378,4,4233.333,4289.744,4165.128,4142.564,4201.026,16185.0
1774430701.7456,5,4248.205,4264.615,4177.949,4151.282,4201.026,450.0
1774430701.7534,6,4256.923,4272.308,4156.41,4171.795,4228.718,16163.0
1774430701.7612,7,4244.615,4296.923,4147.179,4157.436,4230.769,450.0
1774430701.7691,8,4243.077,4293.333,4160.0,4136.41,4216.923,450.0
1774430701.7769,9,4252.308,4281.026,4156.41,4147.179,4218.974,16189.0
1774430701.7847,10,4229.744,4309.231,4138.974,4155.897,4224.615,450.0
1774430701.7925,11,4207.692,4331.795,4142.051,4153.846,4218.974,16199.0
1774430701.8004,12,4233.333,4301.026,4152.821,4160.513,4198.462,450.0
1774430701.8082,13,4249.744,4300.0,4145.128,4164.103,4188.718,450.0
1774430701.8162,14,4225.641,4353.333,4138.974,4162.051,4205.641,450.0
1774430701.824,15,4224.615,4346.154,4150.769,4156.923,4207.692,16199.0
1774430701.8317,16,4245.641,4284.615,4165.128,4146.667,4204.615,0.0
1774430701.8396,17,4256.41,4296.41,4184.103,4167.179,4235.385,0.0
1774430701.8474,18,4251.795,4344.103,4146.154,4194.359,4236.923,0.0
1774430701.8552,19,4204.615,4306.667,4119.487,4148.205,4170.769,0.0
1774430701.8629,20,4200.513,4292.821,4192.308,4137.949,4177.436,0.0
1774430701.8708,21,4237.949,4340.0,4172.821,4185.128,4235.897,0.0
1774430701.8785,22,4227.692,4313.846,4139.487,4159.487,4228.718,0.0
1774430701.8863,23,4238.462,4249.744,4200.513,4141.026,4220.513,0.0
1774430701.894,24,4251.282,4226.154,4184.615,4168.205,4222.564,0.0
1774430701.9019,25,4224.615,4246.667,4163.59,4165.128,4211.795,0.0
1774430701.9097,26,4225.641,4248.718,4192.821,4146.667,4197.436,0.0
1774430701.9176,27,4255.897,4223.077,4188.205,4155.385,4205.641,0.0
1774430701.9255,28,4263.59,4273.846,4158.462,4179.487,4257.436,0.0
1774430701.9334,29,4231.795,4323.59,4147.692,4168.205,4260.0,0.0
1774430701.9412,30,4228.205,4286.667,4163.077,4150.769,4218.974,0.0
1774430701.9491,31,4256.923,4275.385,4158.462,4167.692,4225.128,0.0
1774430701.9569,32,4245.128,4330.256,4148.205,4176.41,4247.179,0.0
1774430701.9648,33,4225.128,4331.795,4173.846,4154.872,4228.205,0.0
1774430701.9727,34,4238.974,4278.462,4195.385,4143.077,4207.692,0.0
1774430701.9806,35,4254.872,4284.103,4173.333,4158.462,4223.59,0.0
1774430701.9885,36,4250.256,4326.667,4157.949,4158.462,4242.564,0.0
1774430701.9963,37,4240.0,4322.051,4187.179,4142.564,4241.538,0.0
1774430702.0041,38,4242.051,4285.641,4202.051,4156.923,4228.205,0.0
1774430702.012,39,4244.103,4272.821,4175.385,4176.41,4215.385,0.0
1774430702.0199,40,4226.667,4292.821,4168.205,4158.462,4212.821,0.0
1774430702.0278,41,4209.231,4287.692,4188.205,4134.872,4207.179,0.0
1774430702.0357,42,4234.872,4255.385,4192.308,4144.615,4204.615,0.0
1774430702.0435,43,4261.538,4272.821,4181.026,4158.462,4223.59,0.0
1774430702.0514,44,4242.051,4310.256,4191.282,4154.359,4231.282,0.0
1774430702.0592,45,4232.821,4282.564,4197.436,4156.41,4211.795,0.0
1774430702.0671,46,4235.385,4264.103,4163.077,4154.359,4202.564,0.0
1774430702.0749,47,4230.256,4308.205,4155.897,4147.179,4212.308,0.0
1774430702.0829,48,4248.205,4303.077,4180.513,4158.462,4214.872,0.0
1774430702.0907,49,4258.974,4260.0,4164.615,4157.949,4217.949,0.0
1774430702.0986,50,4237.436,4277.436,4146.667,4133.333,4223.077,0.0
1774430702.1064,51,4234.359,4287.692,4171.282,4127.692,4212.308,0.0
1774430702.1143,52,4258.974,4255.897,4188.718,4149.231,4206.154,0.0
1774430702.1221,53,4256.41,4269.744,4162.564,4164.615,4231.795,0.0
1774430702.13,54,4225.128,4311.795,4142.564,4157.436,4250.769,0.0
1774430702.1379,55,4216.923,4292.821,4172.821,4143.077,4228.205,0.0
1774430702.1458,56,4232.821,4260.513,4195.897,4151.282,4201.538,0.0
1774430702.1537,57,4242.564,4284.615,4181.026,4168.718,4215.897,0.0
1774430702.1616,58,4240.0,4312.308,4175.897,4167.179,4240.513,0.0
1774430702.1694,59,4236.41,4292.308,4200.0,4160.0,4223.077,0.0
1774430702.1773,60,4236.41,4273.333,4209.744,4165.641,4197.436,0.0
1774430702.1852,61,4229.744,4301.538,4174.872,4163.077,4212.821,0.0
1774430702.1931,62,4229.231,4326.667,4149.231,4151.282,4234.872,0.0
1774430702.201,63,4249.231,4298.974,4167.692,4158.462,4230.256,0.0
1774430702.2088,64,4268.205,4272.821,4180.0,4180.0,4222.051,450.0
1774430702.2167,65,4265.128,4284.103,4162.051,4191.282,4230.769,450.0
1774430702.2246,66,4247.692,4300.513,4146.667,4179.487,4229.744,16211.0
1774430702.2325,67,4246.667,4300.57,4150.37,4175.84,4226.382,450.0
1774430702.2404,68,4245.641,4300.627,4154.074,4172.194,4223.02,16185.0
1774430702.2482,69,4244.615,4300.684,4157.778,4168.547,4219.658,450.0
1774430702.256,70,4243.59,4300.741,4161.481,4164.9,4216.296,16163.0
1774430702.2638,71,4242.564,4300.798,4165.185,4161.254,4212.934,450.0
1774430702.2716,72,4241.538,4300.855,4168.889,4157.607,4209.573,450.0
1774430702.2794,73,4240.513,4300.912,4172.593,4153.96,4206.211,16189.0
1774430702.2872,74,4239.487,4300.969,4176.296,4150.313,4202.849,450.0
1774430702.2951,75,4238.462,4301.026,4180.0,4146.667,4199.487,16198.0
1774430702.303,76,4264.103,4305.641,4173.846,4187.179,4226.154,450.0
1774430702.3108,77,4243.59,4347.692,4140.0,4185.641,4252.308,450.0
1774430702.3186,78,4217.436,4312.821,4144.615,4130.769,4209.231,450.0
1774430702.3264,79,4242.051,4250.769,4162.051,4132.308,4183.077,16198.0
1774430702.3341,80,4268.205,4271.795,4161.538,4178.462,4226.154,450.0
1774430702.342,81,4245.128,4311.282,4170.769,4167.692,4253.333,450.0
1774430702.3499,82,4217.436,4275.897,4184.615,4130.769,4213.846,450.0
1774430702.3577,83,4244.103,4233.846,4185.128,4145.128,4194.359,16198.0
1774430702.3656,84,4278.462,4276.41,4169.744,4170.256,4231.795,450.0
1774430702.3734,85,4267.692,4326.154,4175.385,4167.692,4248.718,450.0
1774430702.3813,86,4258.462,4297.436,4208.205,4173.333,4227.179,450.0
1774430702.3891,87,4275.897,4252.308,4199.487,4184.615,4224.615,16198.0
1774430702.3969,88,4262.564,4264.103,4157.436,4177.436,4234.872,450.0
1774430702.4047,89,4234.872,4295.897,4167.179,4161.538,4221.026,450.0
1774430702.4125,90,4248.205,4289.231,4197.949,4150.769,4198.462,450.0
1774430702.4202,91,4264.615,4276.41,4171.282,4153.333,4208.718,16198.0
1774430702.428,92,4245.641,4302.564,4130.769,4166.667,4238.462,450.0
1774430702.4357,93,4228.718,4321.026,4132.821,4159.487,4232.821,450.0
1774430702.4435,94,4256.41,4292.821,4148.205,4152.308,4209.744,450.0
1774430702.4512,95,4285.641,4296.923,4148.718,4181.026,4230.256,16198.0
1774430702.4592,96,4266.154,4356.41,4145.128,4190.769,4262.051,450.0
1774430702.467,97,4236.923,4349.744,4149.231,4151.282,4232.821,450.0
1774430702.4748,98,4236.41,4290.769,4170.769,4145.641,4200.0,450.0
1774430702.4826,99,4242.564,4323.59,4175.385,4180.0,4228.718,16198.0
1774430702.4905,100,4238.974,4372.308,4157.949,4169.744,4242.051,450.0
1774430702.4984,101,4238.974,4311.795,4173.846,4140.513,4203.077,450.0
1774430702.5063,102,4243.59,4274.359,4182.051,4155.385,4201.538,450.0
1774430702.5141,103,4252.821,4329.744,4153.846,4174.359,4249.744,16198.0
1774430702.522,104,4263.077,4335.385,4165.128,4165.128,4250.769,450.0
1774430702.5298,105,4261.538,4285.641,4190.769,4165.641,4212.821,450.0
1774430702.5375,106,4256.923,4291.795,4161.538,4171.795,4216.923,450.0
1774430702.5453,107,4254.359,4308.718,4142.564,4153.846,4231.282,16198.0
1774430702.553,108,4238.974,4280.513,4155.897,4135.897,4201.026,450.0
1774430702.5609,109,4224.615,4291.795,4142.051,4149.231,4190.256,450.0
1774430702.5686,110,4228.205,4327.692,4131.282,4157.949,4216.923,450.0
1774430702.5764,111,4237.949,4315.897,4167.692,4146.667,4221.026,16198.0
1774430702.5841,112,4246.154,4310.256,4176.923,4168.718,4228.205,450.0
1774430702.5919,113,4243.077,4333.333,4140.513,4191.282,4247.179,450.0
1774430702.5996,114,4238.974,4318.974,4145.641,4163.59,4229.744,450.0
1774430702.6074,115,4253.846,4276.41,4181.026,4150.256,4208.205,16198.0
1774430702.6152,116,4263.077,4281.026,4178.462,4172.821,4224.615,450.0
1774430702.623,117,4236.923,4321.026,4158.974,4167.692,4229.231,450.0
1774430702.6307,118,4209.744,4322.051,4171.282,4143.59,4197.949,450.0
1774430702.6386,119,4222.564,4288.718,4183.59,4150.256,4199.487,16198.0
1774430702.6464,120,4252.308,4303.59,4156.923,4172.821,4245.641,450.0
1774430702.6543,121,4262.564,4351.282,4155.385,4181.538,4266.154,450.0
1774430702.6621,122,4255.385,4326.154,4187.179,4180.0,4244.103,450.0
1774430702.6701,123,4244.103,4267.179,4168.718,4173.846,4218.974,16198.0
1774430702.6779,124,4239.487,4292.821,4135.897,4170.769,4215.385,450.0
1774430702.6858,125,4241.538,4326.154,4161.026,4162.051,4221.538,450.0
1774430702.6936,126,4247.692,4276.41,4189.744,4147.692,4229.231,450.0
1774430702.7013,127,4250.769,4252.821,4159.487,4154.872,4243.077,242.0
1774430702.7091,0,4231.282,4275.897,4126.154,4161.026,4234.359,450.0
1774430702.7168,1,4218.974,4256.923,4150.256,4152.308,4212.308,450.0
1774430702.7247,2,4242.564,4240.513,4164.103,4168.205,4224.103,16202.0
1774430702.7324,3,4244.103,4273.333,4136.923,4174.359,4231.795,450.0
1774430702.7402,4,4225.128,4271.795,4156.923,4150.769,4211.282,16173.0
1774430702.7479,5,4242.051,4225.641,4197.436,4160.0,4209.231,450.0
1774430702.7558,6,4256.923,4229.231,4180.0,4188.205,4229.744,16157.0
1774430702.7636,7,4243.077,4266.154,4165.128,4176.41,4227.692,450.0
1774430702.7714,8,4242.051,4261.026,4188.718,4161.538,4204.615,450.0
1774430702.7794,9,4257.436,4263.59,4184.103,4181.538,4213.846,16185.0
1774430702.7872,10,4243.077,4307.179,4157.436,4183.59,4244.615,450.0
1774430702.7951,11,4217.436,4304.615,4167.692,4153.333,4227.179,16203.0
1774430702.8029,12,4233.333,4279.487,4168.205,4155.897,4188.718,450.0
1774430702.8108,13,4252.821,4303.59,4141.026,4178.462,4209.231,450.0
1774430702.8186,14,4239.487,4308.718,4156.923,4165.641,4239.487,450.0
1774430702.8266,15,4227.692,4265.641,4183.077,4154.359,4213.846,16203.0
1774430702.8344,16,4229.744,4261.026,4171.795,4174.872,4203.59,0.0
1774430702.8423,17,4234.359,4277.436,4174.872,4178.462,4225.641,0.0
1774430702.8501,18,4248.718,4244.615,4185.641,4166.667,4225.128,0.0
1774430702.858,19,4257.436,4229.231,4173.846,4175.385,4220.0,0.0
1774430702.8658,20,4248.205,4264.103,4171.795,4173.333,4221.538,0.0
1774430702.8737,21,4246.667,4271.795,4188.205,4157.436,4212.821,0.0
1774430702.8817,22,4250.769,4264.615,4180.0,4169.744,4227.692,0.0
1774430702.8895,23,4234.359,4301.026,4160.0,4173.846,4239.487,0.0
1774430702.8974,24,4222.564,4323.077,4177.436,4156.923,4220.0,0.0
1774430702.9052,25,4239.487,4292.308,4188.205,4172.821,4221.026,0.0
1774430702.9131,26,4254.359,4277.436,4165.128,4190.769,4242.051,0.0
1774430702.9209,27,4252.821,4294.872,4169.744,4170.256,4234.359,0.0
1774430702.9288,28,4254.359,4278.974,4201.538,4162.564,4219.487,0.0
1774430702.9367,29,4254.872,4236.923,4187.692,4176.41,4225.641,0.0
1774430702.9446,30,4243.59,4242.051,4149.744,4168.205,4234.359,0.0
1774430702.9524,31,4245.128,4274.872,4163.59,4158.974,4232.821,0.0
1774430702.9603,32,4258.974,4273.846,4187.179,4171.282,4231.795,0.0
1774430702.9681,33,4252.821,4278.462,4161.026,4182.051,4238.974,0.0
1774430702.976,34,4246.667,4315.385,4158.462,4185.128,4243.59,0.0
1774430702.9839,35,4262.051,4315.385,4196.923,4182.564,4220.513,0.0
1774430702.9918,36,4263.077,4297.436,4188.205,4176.923,4212.821,0.0
1774430702.9996,37,4246.154,4328.205,4162.564,4186.667,4245.641,0.0
1774430703.0075,38,4250.256,4334.359,4188.205,4186.154,4240.513,0.0
1774430703.0154,39,4261.026,4296.41,4208.205,4165.641,4208.205,0.0
1774430703.0232,40,4245.641,4322.564,4173.846,4164.615,4228.718,0.0
1774430703.0311,41,4217.949,4358.462,4148.205,4162.051,4241.026,0.0
1774430703.0389,42,4218.974,4310.769,4174.872,4149.231,4205.128,0.0
1774430703.0469,43,4249.231,4298.462,4175.385,4170.256,4217.949,0.0
1774430703.0547,44,4252.308,4350.256,4144.615,4186.667,4251.795,0.0
1774430703.0626,45,4230.256,4330.769,4172.308,4166.667,4226.667,0.0
1774430703.0704,46,4234.359,4266.667,4212.308,4173.846,4206.667,0.0
1774430703.0783,47,4258.974,4269.231,4197.949,4202.564,4235.385,0.0
1774430703.0861,48,4255.385,4301.538,4183.077,4191.282,4246.154,0.0
1774430703.094,49,4233.333,4286.667,4196.923,4164.615,4206.154,0.0
1774430703.1019,50,4246.667,4264.103,4191.795,4176.41,4197.949,0.0
1774430703.1098,51,4261.538,4282.051,4161.538,4183.59,4235.897,0.0
1774430703.1176,52,4247.179,4313.846,4160.513,4164.615,4246.154,0.0
1774430703.1255,53,4244.103,4300.513,4186.154,4162.051,4224.615,0.0
1774430703.1333,54,4263.077,4268.718,4187.179,4180.513,4231.282,0.0
1774430703.1412,55,4268.718,4296.41,4178.462,4196.923,4258.974,0.0
1774430703.149,56,4257.949,4329.744,4191.282,4186.667,4243.59,0.0
1774430703.157,57,4257.436,4303.59,4213.846,4160.513,4230.769,0.0
1774430703.1648,58,4275.385,4276.923,4209.744,4175.385,4263.077,0.0
1774430703.1727,59,4282.051,4296.923,4184.615,4215.385,4285.641,0.0
1774430703.1806,60,4254.872,4321.026,4175.897,4202.051,4268.205,0.0
1774430703.1884,61,4236.41,4303.59,4176.923,4154.359,4230.256,0.0
1774430703.1963,62,4251.795,4274.359,4180.513,4152.308,4217.436,0.0
1774430703.2042,63,4269.744,4299.487,4185.641,4182.564,4246.154,0.0
1774430703.212,64,4249.231,4343.077,4186.667,4175.385,4248.205,450.0
1774430703.2199,65,4219.487,4307.179,4196.41,4135.897,4203.077,450.0
1774430703.2278,66,4244.103,4256.41,4201.538,4146.154,4203.59,16199.0
1774430703.2356,67,4273.846,4292.308,4193.333,4190.256,4249.744,450.0
1774430703.2435,68,4247.692,4343.59,4198.974,4187.179,4252.308,16179.0
1774430703.2513,69,4225.641,4306.667,4217.436,4164.615,4228.205,450.0
1774430703.2592,70,4249.231,4245.641,4214.872,4167.692,4205.641,16149.0
1774430703.2671,71,4254.872,4284.103,4183.077,4171.795,4200.513,450.0
1774430703.275,72,4235.385,4348.205,4176.41,4161.538,4236.923,450.0
1774430703.2828,73,4253.846,4311.795,4216.41,4167.692,4263.077,16182.0
1774430703.2907,74,4280.513,4259.487,4221.538,4188.205,4242.051,450.0
1774430703.2985,75,4261.026,4284.103,4177.436,4185.641,4231.795,16191.0
1774430703.3064,76,4230.769,4308.205,4172.308,4161.538,4233.333,450.0
1774430703.3143,77,4230.256,4261.026,4209.231,4148.205,4196.923,450.0
1774430703.3222,78,4254.872,4220.513,4215.897,4170.256,4199.487,450.0
1774430703.3301,79,4261.538,4262.051,4187.179,4189.744,4247.692,16191.0
1774430703.3379,80,4230.256,4310.256,4178.462,4162.051,4244.103,450.0
1774430703.3457,81,4228.205,4278.462,4189.744,4144.615,4217.436,450.0
1774430703.3536,82,4259.487,4235.897,4173.333,4172.308,4220.0,450.0
1774430703.3615,83,4250.769,4280.0,4152.821,4185.641,4231.282,16191.0
1774430703.3694,84,4231.795,4306.667,4174.872,4157.436,4225.641,450.0
1774430703.3773,85,4249.231,4242.564,4189.231,4143.077,4211.282,450.0
1774430703.3851,86,4248.718,4232.308,4158.462,4162.051,4220.513,450.0
1774430703.393,87,4222.051,4287.179,4154.872,4154.872,4233.333,16191.0
1774430703.4008,88,4225.128,4296.41,4197.436,4133.333,4212.308,450.0
1774430703.4087,89,4229.744,4285.641,4184.103,4147.179,4197.949,450.0
1774430703.4165,90,4212.821,4278.462,4143.59,4152.821,4215.897,450.0
1774430703.4245,91,4230.256,4242.051,4176.41,4141.538,4224.615,16191.0
1774430703.4323,92,4273.333,4224.103,4213.846,4164.103,4227.179,450.0
1774430703.4402,93,4272.821,4260.0,4194.872,4184.615,4237.436,450.0
1774430703.4481,94,4240.513,4275.897,4183.077,4153.333,4225.128,450.0
1774430703.4559,95,4234.359,4251.795,4196.923,4133.846,4206.154,16191.0
1774430703.4638,96,4245.128,4258.974,4191.282,4159.487,4224.103,450.0
1774430703.4718,97,4232.308,4291.282,4168.718,4162.564,4240.0,450.0
1774430703.4796,98,4217.949,4280.513,4166.667,4138.974,4225.128,450.0
1774430703.4874,99,4227.692,4257.436,4165.128,4147.179,4225.641,16191.0
1774430703.4952,100,4236.923,4304.615,4152.308,4173.333,4238.462,450.0
1774430703.5031,101,4237.436,4346.154,4166.154,4166.154,4231.282,450.0
1774430703.5109,102,4248.205,4282.564,4182.564,4156.41,4226.667,450.0
1774430703.5188,103,4242.051,4238.462,4165.641,4170.256,4233.846,16191.0
1774430703.5268,104,4221.538,4276.41,4166.667,4155.897,4222.564,450.0
1774430703.5346,105,4235.385,4273.333,4193.333,4128.718,4206.667,450.0
1774430703.5425,106,4255.385,4242.051,4185.641,4146.667,4216.41,450.0
1774430703.5503,107,4231.795,4273.846,4161.538,4157.949,4218.462,16191.0
1774430703.5582,108,4214.872,4305.641,4169.744,4130.769,4196.41,450.0
1774430703.566,109,4247.179,4301.538,4177.436,4148.718,4207.692,450.0
1774430703.5739,110,4257.949,4320.513,4156.41,4186.154,4244.615,450.0
1774430703.5818,111,4224.103,4332.308,4154.359,4155.897,4248.205,16191.0
1774430703.5897,112,4218.974,4312.821,4164.103,4130.769,4235.385,450.0
1774430703.5975,113,4246.667,4318.974,4151.282,4163.59,4240.0,450.0
1774430703.6054,114,4253.846,4340.0,4150.769,4170.769,4235.897,450.0
1774430703.6132,115,4241.026,4317.949,4167.179,4137.949,4202.051,16191.0
1774430703.6211,116,4235.385,4287.179,4173.333,4130.769,4186.667,450.0
1774430703.6289,117,4243.59,4315.897,4165.641,4156.923,4219.487,450.0
1774430703.6369,118,4246.667,4357.949,4162.564,4169.231,4253.333,450.0
1774430703.6447,119,4240.0,4343.59,4176.41,4155.897,4249.744,16191.0
1774430703.6526,120,4243.077,4307.179,4178.462,4153.333,4223.077,450.0
1774430703.6604,121,4247.179,4308.718,4162.564,4158.974,4202.564,450.0
1774430703.6683,122,4240.513,4332.821,4158.974,4142.564,4210.769,450.0
1774430703.6762,123,4240.0,4331.282,4183.59,4122.564,4232.821,16191.0
1774430703.6841,124,4264.615,4318.462,4209.744,4137.436,4241.538,450.0
1774430703.692,125,4277.949,4320.0,4198.462,4162.051,4238.974,450.0
1774430703.6998,126,4247.179,4323.59,4171.282,4160.0,4234.359,450.0
1774430703.7077,127,4230.256,4321.538,4171.795,4145.641,4235.385,242.0
1774430703.7155,0,4247.179,4323.077,4188.205,4136.41,4230.769,450.0
1774430703.7234,1,4251.282,4317.949,4189.744,4135.385,4210.769,450.0
1774430703.7312,2,4240.513,4308.718,4168.718,4147.179,4215.385,16208.0
1774430703.7392,3,4244.103,4316.41,4156.41,4150.769,4243.59,450.0
1774430703.747,4,4255.897,4331.795,4178.462,4137.949,4234.872,16164.0
1774430703.7549,5,4251.795,4304.103,4190.256,4132.821,4203.077,450.0
1774430703.7627,6,4251.795,4261.538,4180.0,4154.872,4220.513,16164.0
1774430703.7706,7,4260.513,4289.744,4177.436,4176.923,4255.385,450.0
1774430703.7784,8,4245.641,4317.436,4187.692,4164.103,4235.897,450.0
1774430703.7863,9,4235.897,4277.949,4191.282,4156.41,4224.103,16182.0
1774430703.7942,10,4255.385,4271.795,4163.59,4172.308,4257.436,450.0
1774430703.8021,11,4270.256,4309.744,4137.436,4166.154,4266.154,16195.0
1774430703.8099,12,4260.513,4306.667,4163.077,4143.077,4235.385,450.0
1774430703.8178,13,4246.154,4267.692,4195.897,4142.564,4218.974,450.0
1774430703.8257,14,4242.051,4258.974,4175.385,4154.872,4235.385,450.0
1774430703.8335,15,4241.538,4292.821,4140.0,4143.077,4245.128,16195.0
1774430703.8413,16,4241.538,4320.513,4155.385,4130.256,4230.256,0.0
1774430703.8493,17,4239.487,4282.564,4175.385,4140.0,4207.179,0.0
1774430703.8572,18,4248.205,4240.513,4152.308,4156.41,4217.436,0.0
1774430703.865,19,4261.026,4274.359,4140.0,4171.795,4259.487,0.0
1774430703.8729,20,4244.103,4294.872,4163.077,4168.718,4254.872,0.0
1774430703.8807,21,4224.103,4258.974,4174.359,4147.179,4214.359,0.0
1774430703.8885,22,4245.128,4264.103,4153.333,4149.231,4223.077,0.0
1774430703.8965,23,4246.268,4272.877,4154.074,4153.561,4228.148,0.0
1774430703.9043,24,4247.407,4281.652,4154.815,4157.892,4233.219,0.0
1774430703.9121,25,4248.547,4290.427,4155.556,4162.222,4238.291,0.0
1774430703.9199,26,4249.687,4299.202,4156.296,4166.553,4243.362,0.0
1774430703.9277,27,4250.826,4307.977,4157.037,4170.883,4248.433,0.0
1774430703.9355,28,4251.966,4316.752,4157.778,4175.214,4253.504,0.0
1774430703.9433,29,4253.105,4325.527,4158.519,4179.544,4258.575,0.0
1774430703.9512,30,4254.245,4334.302,4159.259,4183.875,4263.647,0.0
1774430703.959,31,4255.385,4343.077,4160.0,4188.205,4268.718,0.0
1774430703.9667,32,4232.308,4334.872,4158.974,4177.949,4274.359,0.0
1774430703.9745,33,4242.564,4321.538,4182.564,4158.462,4249.744,0.0
1774430703.9822,34,4257.436,4287.179,4186.154,4162.051,4222.051,0.0
1774430703.99,35,4242.564,4277.949,4162.051,4176.923,4234.872,0.0
1774430703.9977,36,4228.205,4319.487,4151.282,4168.205,4248.718,0.0
1774430704.0055,37,4252.308,4324.103,4177.436,4156.41,4242.564,0.0
1774430704.0133,38,4282.564,4297.949,4196.41,4176.41,4250.769,0.0
1774430704.0211,39,4280.0,4306.667,4184.103,4195.897,4263.59,0.0
1774430704.0288,40,4248.718,4333.333,4167.179,4177.949,4248.205,0.0
1774430704.0366,41,4227.179,4336.41,4174.359,4153.333,4228.718,0.0
1774430704.0443,42,4245.641,4307.692,4188.205,4161.538,4232.821,0.0
1774430704.0521,43,4275.385,4293.846,4171.282,4185.641,4245.128,0.0
1774430704.0599,44,4273.846,4327.692,4155.385,4185.128,4252.821,0.0
1774430704.0677,45,4256.41,4357.949,4170.256,4164.103,4250.256,0.0
1774430704.0754,46,4251.282,4327.179,4186.667,4147.179,4236.923,0.0
1774430704.0832,47,4258.462,4288.718,4189.744,4157.949,4237.436,0.0
1774430704.0909,48,4255.897,4315.897,4176.923,4179.487,4253.333,0.0
1774430704.0987,49,4233.333,4338.974,4164.103,4174.359,4249.231,0.0
1774430704.1064,50,4225.128,4297.436,4170.769,4158.462,4220.513,0.0
1774430704.1143,51,4226.667,4278.974,4157.436,4160.0,4208.205,0.0
1774430704.122,52,4217.949,4329.231,4135.897,4161.538,4215.897,0.0
1774430704.1298,53,4229.231,4342.051,4162.564,4163.59,4221.538,0.0
1774430704.1375,54,4245.641,4306.154,4180.513,4173.333,4221.026,0.0
1774430704.1452,55,4236.923,4329.231,4156.923,4170.256,4228.718,0.0
1774430704.153,56,4227.692,4365.128,4169.231,4153.846,4231.795,0.0
1774430704.1607,57,4238.462,4330.256,4199.487,4146.667,4214.359,0.0
1774430704.1686,58,4256.923,4300.513,4166.154,4156.41,4217.949,0.0
1774430704.1763,59,4256.923,4334.359,4125.128,4154.872,4241.026,0.0
1774430704.1841,60,4246.667,4354.359,4144.615,4151.282,4242.051,0.0
1774430704.1918,61,4260.513,4316.923,4167.179,4168.718,4224.615,0.0
1774430704.1996,62,4275.385,4304.103,4167.179,4175.385,4216.41,0.0
1774430704.2073,63,4254.359,4335.897,4168.205,4163.077,4221.538,0.0
1774430704.2151,64,4229.744,4352.308,4162.051,4153.333,4224.615,450.0
1774430704.2229,65,4248.205,4334.359,4168.205,4150.769,4225.641,450.0
1774430704.2307,66,4269.231,4299.487,4177.949,4159.487,4229.744,16203.0
1774430704.2384,67,4257.436,4291.795,4164.103,4176.41,4237.949,450.0
1774430704.2462,68,4248.205,4335.385,4153.846,4178.974,4237.949,16150.0
1774430704.2539,69,4245.128,4342.564,4167.692,4152.308,4214.872,450.0
1774430704.2617,70,4229.231,4281.026,4181.538,4131.282,4191.282,16175.0
1774430704.2694,71,4220.513,4287.692,4169.744,4146.667,4200.513,450.0
1774430704.2773,72,4235.385,4347.692,4152.821,4161.538,4227.179,450.0
1774430704.285,73,4248.205,4318.462,4169.744,4152.308,4236.41,16176.0
1774430704.2928,74,4254.359,4251.795,4200.0,4151.282,4224.615,450.0
1774430704.3005,75,4270.769,4266.154,4200.513,4161.026,4218.462,16183.0
1774430704.3083,76,4284.103,4322.051,4179.487,4169.231,4234.872,450.0
1774430704.316,77,4275.385,4334.359,4171.282,4180.0,4258.974,450.0
1774430704.3239,78,4257.949,4323.59,4177.949,4180.0,4263.077,450.0
1774430704.3316,79,4260.0,4323.59,4192.308,4158.462,4243.077,16183.0
1774430704.3394,80,4276.923,4314.872,4205.128,4155.897,4234.872,450.0
1774430704.3471,81,4271.795,4302.564,4191.795,4176.41,4245.641,450.0
1774430704.3549,82,4247.179,4331.282,4165.128,4185.641,4249.231,450.0
1774430704.3626,83,4246.667,4364.103,4167.179,4177.436,4248.205,16183.0
1774430704.3704,84,4266.667,4329.231,4183.59,4155.385,4238.462,450.0
1774430704.3783,85,4264.615,4291.795,4182.051,4144.615,4226.154,450.0
1774430704.386,86,4246.667,4307.179,4164.615,4166.154,4239.487,450.0
1774430704.3937,87,4233.333,4321.538,4156.41,4169.231,4249.231,16183.0
1774430704.4014,88,4230.256,4295.897,4185.641,4149.231,4223.077,450.0
1774430704.4092,89,4244.615,4267.692,4202.564,4167.692,4223.59,450.0
1774430704.4169,90,4254.872,4271.795,4175.897,4185.128,4255.897,450.0
1774430704.4247,91,4243.077,4281.538,4173.333,4158.974,4243.077,16183.0
1774430704.4325,92,4240.513,4263.59,4206.154,4142.051,4203.077,450.0
1774430704.4404,93,4260.513,4244.615,4213.846,4154.872,4211.282,450.0
1774430704.4482,94,4263.077,4284.103,4185.641,4170.769,4249.744,450.0
1774430704.4561,95,4235.897,4310.256,4168.718,4167.179,4245.641,16183.0
1774430704.4639,96,4235.385,4281.538,4180.513,4151.282,4210.256,450.0
1774430704.4718,97,4269.744,4273.846,4181.026,4156.41,4215.897,450.0
1774430704.4796,98,4284.615,4274.872,4169.744,4181.538,4243.077,450.0
1774430704.4876,99,4262.564,4261.026,4170.256,4172.821,4233.846,16183.0
1774430704.4954,100,4243.077,4277.436,4183.077,4135.385,4212.308,450.0
1774430704.5033,101,4253.846,4294.359,4181.538,4136.923,4212.308,450.0
1774430704.5111,102,4258.974,4269.231,4152.821,4157.949,4207.179,450.0
1774430704.519,103,4242.564,4268.718,4148.205,4158.974,4212.821,16183.0
1774430704.5268,104,4243.59,4293.333,4177.436,4163.59,4240.513,450.0
1774430704.5347,105,4253.846,4276.41,4165.128,4168.205,4227.692,450.0
1774430704.5426,106,4242.051,4272.308,4134.359,4158.974,4204.103,450.0
1774430704.5505,107,4236.41,4308.205,4162.564,4153.333,4220.0,16183.0
1774430704.5583,108,4255.897,4311.282,4200.513,4154.359,4225.128,450.0
1774430704.5662,109,4266.667,4296.923,4181.538,4154.872,4209.231,450.0
1774430704.574,110,4251.282,4322.051,4145.128,4157.949,4215.897,450.0
1774430704.5819,111,4230.769,4337.436,4155.385,4162.051,4235.385,16183.0
1774430704.5898,112,4232.821,4295.385,4181.538,4158.974,4228.205,450.0
1774430704.5977,113,4246.667,4250.769,4173.846,4152.308,4206.154,450.0
1774430704.6055,114,4257.436,4270.769,4155.385,4150.769,4216.923,450.0
1774430704.6134,115,4251.795,4322.051,4153.333,4144.615,4226.154,16183.0
1774430704.6212,116,4233.846,4329.231,4166.154,4132.821,4203.077,450.0
1774430704.6291,117,4245.128,4293.846,4179.487,4148.718,4200.0,450.0
1774430704.6369,118,4281.538,4265.128,4180.513,4182.051,4241.026,450.0
1774430704.6449,119,4279.487,4282.051,4162.051,4186.667,4267.179,16183.0
1774430704.6527,120,4234.872,4314.872,4153.846,4154.359,4241.026,450.0
1774430704.6606,121,4222.564,4318.462,4181.538,4129.744,4216.41,450.0
1774430704.6685,122,4256.41,4302.564,4186.154,4148.205,4220.513,450.0
1774430704.6763,123,4260.0,4309.744,4152.821,4176.41,4217.949,16183.0
1774430704.6842,124,4231.795,4334.872,4152.821,4165.128,4217.949,450.0
1774430704.692,125,4235.385,4301.026,4172.308,4136.41,4228.718,450.0
1774430704.7,126,4266.667,4245.128,4171.282,4141.026,4224.615,450.0
1774430704.7078,127,4274.872,4275.897,4158.462,4165.641,4223.077,242.0
1774430704.7157,0,4240.0,4334.359,4143.59,4163.077,4239.487,450.0
1774430704.7235,1,4227.692,4320.0,4157.436,4145.641,4235.897,450.0
1774430704.7313,2,4271.282,4278.462,4195.897,4145.128,4216.41,16195.0
1774430704.7392,3,4286.667,4272.308,4196.923,4152.821,4210.769,450.0
1774430704.7471,4,4246.667,4290.256,4158.462,4151.282,4213.333,16176.0
1774430704.755,5,4225.641,4309.744,4153.333,4146.667,4222.564,450.0
1774430704.7629,6,4250.769,4304.615,4189.231,4148.205,4233.846,16157.0
1774430704.7707,7,4265.128,4278.974,4195.385,4158.974,4232.308,450.0
1774430704.7786,8,4254.872,4279.487,4175.897,4168.205,4227.692,450.0
1774430704.7864,9,4250.256,4310.256,4180.0,4160.513,4231.282,16168.0
1774430704.7943,10,4246.667,4295.385,4192.308,4135.897,4217.436,450.0
1774430704.8021,11,4240.513,4244.103,4198.974,4128.205,4195.897,16182.0
1774430704.8101,12,4240.0,4263.59,4190.256,4155.897,4210.256,450.0
1774430704.8179,13,4245.128,4313.333,4177.949,4174.872,4234.872,450.0
1774430704.8258,14,4248.205,4282.051,4198.462,4156.923,4223.59,450.0
1774430704.8336,15,4244.103,4237.436,4212.308,4144.103,4205.128,16182.0
1774430704.8415,16,4245.641,4268.718,4194.359,4159.487,4221.026,0.0
1774430704.8494,17,4253.846,4305.128,4186.667,4167.179,4242.564,0.0
1774430704.8572,18,4256.923,4280.0,4202.051,4155.385,4228.205,0.0
1774430704.8652,19,4271.795,4260.0,4215.385,4165.128,4215.897,0.0
1774430704.873,20,4280.513,4283.077,4195.385,4188.205,4241.026,0.0
1774430704.8809,21,4250.769,4291.282,4164.615,4171.282,4233.846,0.0
1774430704.8887,22,4232.308,4257.436,4171.282,4144.615,4188.718,0.0
1774430704.8966,23,4246.154,4244.103,4187.692,4156.41,4196.41,0.0
1774430704.9044,24,4243.077,4283.077,4178.974,4173.333,4238.974,0.0
1774430704.9123,25,4231.795,4292.308,4174.872,4151.795,4222.564,0.0
1774430704.9202,26,4245.641,4269.744,4187.692,4138.462,4189.744,0.0
1774430704.9281,27,4252.821,4297.949,4191.795,4162.564,4214.359,0.0
1774430704.9359,28,4237.436,4318.974,4192.821,4162.564,4231.795,0.0
1774430704.9438,29,4236.923,4281.538,4203.077,4137.949,4206.667,0.0
1774430704.9516,30,4236.41,4282.051,4189.744,4142.051,4194.359,0.0
1774430704.9595,31,4222.564,4317.949,4175.897,4153.333,4202.564,0.0
1774430704.9674,32,4232.308,4302.564,4197.436,4153.846,4209.744,0.0
1774430704.9753,33,4252.308,4287.692,4189.744,4167.179,4212.821,0.0
1774430704.9831,34,4251.795,4311.282,4153.333,4180.0,4215.385,0.0
1774430704.991,35,4255.385,4304.615,4166.154,4169.744,4211.795,0.0
1774430704.9989,36,4261.026,4273.846,4192.308,4154.359,4201.538,0.0
1774430705.0067,37,4246.154,4279.487,4167.179,4156.41,4207.692,0.0
1774430705.0145,38,4236.41,4294.359,4153.846,4160.0,4208.205,0.0
1774430705.0225,39,4231.795,4269.744,4185.641,4147.179,4194.872,0.0
1774430705.0304,40,4234.359,4262.564,4189.231,4162.564,4217.949,0.0
1774430705.0382,41,4251.795,4305.128,4166.667,4193.846,4253.846,0.0
1774430705.0461,42,4245.641,4315.897,4173.333,4170.769,4228.718,0.0
1774430705.0539,43,4222.051,4262.564,4183.077,4140.513,4185.128,0.0
1774430705.0618,44,4230.256,4236.41,4179.487,4162.564,4197.436,0.0
1774430705.0696,45,4251.795,4288.718,4181.026,4176.923,4231.282,0.0
1774430705.0776,46,4238.974,4318.974,4192.821,4154.872,4231.795,0.0
1774430705.0854,47,4232.821,4276.41,4209.744,4157.436,4218.462,0.0
1774430705.0933,48,4254.872,4258.462,4190.769,4187.179,4223.077,0.0
1774430705.1011,49,4250.769,4288.205,4162.564,4185.641,4230.256,0.0
1774430705.109,50,4240.0,4288.205,4188.718,4166.667,4225.128,0.0
1774430705.1168,51,4265.128,4254.872,4217.436,4182.051,4221.538,0.0
1774430705.1246,52,4282.564,4262.051,4195.897,4203.59,4231.795,0.0
1774430705.1324,53,4250.256,4294.359,4183.59,4181.538,4231.795,0.0
1774430705.1403,54,4223.077,4266.667,4197.436,4148.718,4212.821,0.0
1774430705.1481,55,4245.128,4224.103,4181.026,4163.59,4224.103,0.0
1774430705.156,56,4260.513,4263.59,4154.872,4188.718,4247.692,0.0
1774430705.1639,57,4249.231,4316.923,4172.308,4183.077,4241.026,0.0
1774430705.1717,58,4253.333,4286.667,4188.205,4184.103,4234.359,0.0
1774430705.1796,59,4258.462,4257.436,4162.564,4191.282,4243.077,0.0
1774430705.1875,60,4241.026,4298.462,4163.077,4181.026,4240.513,0.0
1774430705.1954,61,4229.744,4293.333,4201.538,4171.282,4223.077,0.0
1774430705.2032,62,4239.487,4227.179,4217.436,4172.308,4215.385,0.0
1774430705.211,63,4248.205,4250.769,4213.846,4177.436,4227.179,0.0
1774430705.2189,64,4240.0,4307.692,4221.538,4174.872,4224.103,450.0
1774430705.2268,65,4230.769,4255.897,4224.615,4170.769,4206.154,450.0
1774430705.2347,66,4241.026,4215.385,4197.949,4177.949,4222.564,16202.0
1774430705.2425,67,4254.359,4274.872,4188.205,4190.769,4257.949,450.0
1774430705.2504,68,4253.846,4294.872,4218.462,4190.769,4255.385,16181.0
1774430705.2583,69,4256.923,4246.154,4223.59,4185.641,4236.923,450.0
1774430705.2661,70,4271.282,4263.077,4200.0,4199.487,4252.308,16157.0
1774430705.274,71,4257.949,4304.103,4191.282,4191.795,4256.41,450.0
1774430705.2818,72,4223.077,4279.487,4196.41,4150.769,4215.385,450.0
1774430705.2898,73,4233.846,4263.077,4187.692,4143.077,4208.718,16191.0
1774430705.2976,74,4269.231,4297.436,4168.718,4173.846,4256.923,450.0
1774430705.3054,75,4265.641,4332.308,4179.487,4194.872,4277.949,16195.0
1774430705.3131,76,4248.718,4325.641,4213.333,4188.718,4245.128,450.0
1774430705.321,77,4254.872,4277.436,4219.487,4174.872,4224.615,450.0
1774430705.3289,78,4271.795,4257.949,4195.897,4181.538,4247.692,450.0
1774430705.3368,79,4273.846,4308.205,4172.308,4196.41,4267.179,16195.0
1774430705.3447,80,4260.0,4343.077,4167.692,4183.59,4258.974,450.0
1774430705.3526,81,4259.487,4304.103,4172.821,4169.231,4243.077,450.0
1774430705.3604,82,4275.385,4269.744,4171.795,4189.744,4237.436,450.0
1774430705.3683,83,4278.974,4294.359,4164.103,4204.615,4253.333,16195.0
1774430705.3761,84,4274.872,4328.718,4161.026,4194.872,4277.436,450.0
1774430705.384,85,4291.282,4327.692,4175.897,4189.231,4289.231,450.0
1774430705.3919,86,4314.359,4289.744,4189.231,4182.051,4282.564,450.0
1774430705.3998,87,4341.026,4235.897,4196.41,4167.179,4282.564,16195.0
1774430705.4077,88,4380.0,4240.0,4208.205,4169.744,4312.821,450.0
1774430705.4155,89,4401.538,4290.769,4211.282,4173.333,4341.026,450.0
1774430705.4233,90,4411.795,4291.795,4205.641,4164.615,4345.128,450.0
1774430705.4312,91,4442.564,4281.538,4192.821,4179.487,4366.667,16195.0
1774430705.4391,92,4466.667,4318.462,4168.205,4195.385,4408.718,450.0
1774430705.4469,93,4470.769,4330.256,4162.051,4185.641,4426.667,450.0
1774430705.4549,94,4504.103,4277.949,4177.436,4187.692,4428.205,450.0
1774430705.4627,95,4544.103,4230.256,4187.179,4190.769,4429.231,16195.0
1774430705.4706,96,4552.821,4252.821,4178.974,4187.179,4446.667,450.0
1774430705.4784,97,4570.256,4292.308,4167.692,4195.897,4480.0,450.0
1774430705.4863,98,4603.077,4295.897,4169.744,4195.897,4500.513,450.0
1774430705.4941,99,4619.487,4298.974,4177.436,4187.692,4503.59,16195.0
1774430705.5021,100,4634.359,4305.128,4189.231,4192.308,4508.718,450.0
1774430705.5099,101,4663.077,4279.487,4202.564,4202.564,4528.718,450.0
1774430705.5178,102,4682.051,4255.385,4199.487,4208.205,4551.282,450.0
1774430705.5256,103,4676.41,4265.641,4203.077,4203.077,4551.795,16195.0
1774430705.5335,104,4669.231,4273.333,4216.923,4177.949,4541.026,450.0
1774430705.5413,105,4671.795,4275.385,4199.487,4163.077,4554.872,450.0
1774430705.5492,106,4687.179,4297.436,4173.846,4190.769,4592.821,450.0
1774430705.5571,107,4708.205,4321.538,4181.026,4230.256,4617.949,16195.0
1774430705.565,108,4713.333,4304.103,4213.333,4221.026,4605.641,450.0
1774430705.5728,109,4712.308,4269.744,4232.821,4190.256,4584.615,450.0
1774430705.5807,110,4734.359,4269.231,4218.974,4201.026,4609.744,450.0
1774430705.5886,111,4774.359,4276.923,4218.974,4231.282,4651.282,16195.0
1774430705.5964,112,4781.538,4278.462,4231.282,4232.821,4650.769,450.0
1774430705.6042,113,4762.564,4300.513,4208.205,4224.615,4649.744,450.0
1774430705.6122,114,4776.923,4310.769,4187.179,4238.462,4683.077,450.0
1774430705.6201,115,4789.744,4303.077,4203.077,4242.051,4686.667,16195.0
1774430705.6279,116,4757.949,4342.051,4209.744,4224.103,4666.667,450.0
1774430705.6358,117,4752.821,4377.949,4193.333,4218.974,4679.487,450.0
1774430705.6436,118,4790.256,4354.359,4205.641,4223.59,4704.103,450.0
1774430705.6515,119,4792.308,4333.333,4222.564,4219.487,4704.615,16195.0
1774430705.6593,120,4767.692,4333.333,4203.077,4206.667,4682.051,450.0
1774430705.6673,121,4774.872,4339.487,4203.077,4201.538,4669.744,450.0
1774430705.6751,122,4793.846,4342.051,4225.128,4212.821,4682.051,450.0
1774430705.683,123,4785.641,4315.385,4229.231,4226.154,4684.103,16195.0
1774430705.6908,124,4772.821,4307.692,4222.564,4220.513,4673.846,450.0
1774430705.6987,125,4761.538,4329.231,4201.538,4201.538,4663.077,450.0
1774430705.7065,126,4753.846,4292.308,4200.0,4194.359,4646.667,450.0
1774430705.7145,127,4780.0,4260.0,4226.154,4212.821,4658.974,242.0
1774430705.7223,0,4802.564,4293.846,4232.821,4222.051,4674.872,450.0
1774430705.7302,1,4794.872,4292.821,4218.462,4202.564,4651.795,450.0
1774430705.7381,2,4789.231,4270.769,4206.667,4200.0,4646.667,16196.0
1774430705.7459,3,4796.923,4285.128,4214.359,4214.359,4666.154,450.0
1774430705.7537,4,4793.846,4288.205,4225.128,4205.641,4657.949,16180.0
1774430705.7616,5,4785.128,4280.513,4205.128,4196.41,4649.231,450.0
1774430705.7696,6,4792.308,4278.974,4199.487,4212.308,4656.41,16149.0
1774430705.7774,7,4789.744,4258.462,4230.769,4212.308,4642.051,450.0
1774430705.7853,8,4786.154,4260.513,4233.333,4209.231,4647.179,450.0
1774430705.7931,9,4797.436,4289.231,4206.667,4233.846,4672.308,16185.0
1774430705.801,10,4772.821,4275.897,4193.333,4228.205,4642.564,450.0
1774430705.8088,11,4721.538,4273.846,4175.897,4195.385,4611.795,16188.0
1774430705.8167,12,4718.462,4315.385,4167.692,4199.487,4637.436,450.0
1774430705.8246,13,4742.564,4293.846,4196.923,4214.872,4641.026,450.0
1774430705.8324,14,4734.359,4238.462,4225.128,4201.026,4604.103,450.0
1774430705.8403,15,4718.462,4245.641,4218.974,4190.256,4590.769,16188.0
1774430705.8482,16,4736.923,4270.769,4196.41,4215.385,4614.359,0.0
1774430705.856,17,4754.872,4263.59,4184.103,4241.538,4624.103,0.0
1774430705.8639,18,4722.051,4261.538,4185.641,4222.051,4596.923,0.0
1774430705.8717,19,4697.436,4286.154,4187.692,4200.513,4591.282,0.0
1774430705.8797,20,4726.154,4305.641,4189.744,4224.103,4623.077,0.0
1774430705.8875,21,4743.077,4277.949,4208.718,4235.385,4621.538,0.0
1774430705.8954,22,4720.0,4240.0,4217.436,4211.795,4590.256,0.0
1774430705.9033,23,4700.0,4253.333,4186.667,4196.923,4593.846,0.0
1774430705.9111,24,4706.667,4293.846,4157.949,4212.308,4630.256,0.0
1774430705.919,25,4717.436,4293.333,4163.59,4231.795,4641.026,0.0
1774430705.9269,26,4709.744,4254.872,4201.026,4224.615,4605.128,0.0
1774430705.9348,27,4693.846,4237.949,4226.667,4202.051,4571.795,0.0
1774430705.9426,28,4694.359,4258.974,4213.846,4206.667,4584.615,0.0
1774430705.9504,29,4701.538,4291.795,4193.846,4246.667,4616.923,0.0
1774430705.9583,30,4687.179,4291.795,4183.077,4252.821,4615.385,0.0
1774430705.9662,31,4664.615,4257.949,4197.436,4213.333,4583.077,0.0
1774430705.974,32,4667.179,4229.744,4229.231,4198.974,4563.077,0.0
1774430705.982,33,4672.308,4238.462,4214.872,4205.128,4563.59,0.0
1774430705.9898,34,4649.744,4260.0,4184.615,4187.692,4557.949,0.0
1774430705.9977,35,4633.846,4260.0,4195.897,4180.0,4543.077,0.0
1774430706.0055,36,4641.026,4275.897,4200.513,4214.359,4558.974,0.0
1774430706.0134,37,4628.205,4315.897,4180.0,4231.795,4588.205,0.0
1774430706.0212,38,4609.231,4301.538,4174.872,4200.513,4566.667,0.0
1774430706.0291,39,4621.538,4275.385,4170.769,4192.308,4538.974,0.0
1774430706.037,40,4644.103,4314.872,4162.051,4225.641,4554.359,0.0
1774430706.0449,41,4642.051,4315.385,4183.077,4227.692,4553.846,0.0
1774430706.0527,42,4617.436,4267.179,4200.0,4213.333,4532.821,0.0
1774430706.0606,43,4601.026,4276.923,4193.333,4225.641,4526.154,0.0
1774430706.0684,44,4595.897,4299.487,4206.667,4221.026,4514.359,0.0
1774430706.0763,45,4593.333,4280.0,4213.333,4206.667,4513.333,0.0
1774430706.0841,46,4594.872,4259.487,4200.513,4229.744,4525.641,0.0
1774430706.0921,47,4577.436,4267.692,4211.282,4235.897,4510.256,0.0
1774430706.0999,48,4545.641,4289.744,4209.744,4207.179,4490.769,0.0
1774430706.1078,49,4549.231,4296.923,4184.103,4209.231,4505.128,0.0
1774430706.1156,50,4567.692,4280.513,4192.821,4226.667,4512.308,0.0
1774430706.1235,51,4552.821,4301.026,4186.667,4217.949,4505.641,0.0
1774430706.1313,52,4545.641,4321.026,4164.103,4206.154,4500.513,0.0
1774430706.1393,53,4553.333,4272.308,4183.59,4191.795,4471.282,0.0
1774430706.1472,54,4528.718,4263.077,4202.564,4173.846,4450.769,0.0
1774430706.155,55,4513.846,4306.667,4202.051,4183.077,4458.974,0.0
1774430706.1628,56,4521.538,4280.513,4220.0,4192.821,4433.846,0.0
1774430706.1707,57,4511.282,4252.821,4235.897,4185.128,4407.692,0.0
1774430706.1786,58,4507.179,4301.538,4211.282,4200.0,4446.154,0.0
1774430706.1864,59,4523.59,4305.128,4199.487,4221.026,4475.897,0.0
1774430706.1944,60,4528.205,4259.487,4220.513,4206.154,4449.744,0.0
1774430706.2022,61,4504.615,4295.385,4205.128,4180.0,4434.872,0.0
1774430706.2101,62,4484.615,4328.718,4172.821,4170.769,4438.974,0.0
1774430706.2179,63,4497.436,4259.487,4187.179,4176.41,4428.205,0.0
1774430706.2258,64,4507.179,4231.795,4219.487,4184.615,4417.436,450.0
1774430706.2336,65,4496.41,4286.154,4214.359,4189.744,4429.231,450.0
1774430706.2415,66,4490.256,4290.256,4186.667,4197.436,4433.846,16193.0
1774430706.2494,67,4478.462,4265.641,4177.436,4193.846,4406.154,450.0
1774430706.2573,68,4454.872,4283.077,4195.897,4175.897,4381.026,16152.0
1774430706.2651,69,4435.385,4278.462,4224.103,4160.0,4376.923,450.0
1774430706.273,70,4427.692,4261.026,4231.795,4163.077,4382.564,16156.0
1774430706.2808,71,4427.692,4300.513,4196.923,4177.949,4389.744,450.0
1774430706.2887,72,4428.718,4322.564,4175.385,4178.974,4387.692,450.0
1774430706.2966,73,4436.41,4302.051,4183.59,4185.641,4388.718,16179.0
1774430706.3045,74,4434.359,4292.308,4163.59,4195.897,4391.282,450.0
1774430706.3123,75,4418.462,4277.436,4152.821,4181.538,4373.846,16204.0
1774430706.3202,76,4417.436,4255.897,4189.744,4178.462,4353.846,450.0
1774430706.3281,77,4408.205,4269.744,4202.564,4194.872,4349.744,450.0
1774430706.3359,78,4386.667,4282.564,4185.128,4185.128,4337.949,450.0
1774430706.3438,79,4392.821,4257.949,4198.462,4171.795,4323.59,16204.0
1774430706.3517,80,4400.513,4264.103,4215.897,4182.051,4328.718,450.0
1774430706.3596,81,4388.718,4290.256,4203.59,4180.0,4333.333,450.0
1774430706.3674,82,4399.487,4274.872,4196.41,4175.897,4333.333,450.0
1774430706.3753,83,4411.795,4266.667,4202.564,4186.154,4336.41,16204.0
1774430706.3831,84,4389.744,4286.154,4202.564,4173.846,4323.077,450.0
1774430706.391,85,4374.359,4279.487,4194.359,4156.41,4311.282,450.0
1774430706.3988,86,4368.205,4264.615,4191.795,4154.872,4306.667,450.0
1774430706.4068,87,4351.282,4275.897,4213.333,4147.179,4282.051,16204.0
1774430706.4146,88,4356.923,4282.051,4248.205,4149.231,4273.846,450.0
1774430706.4225,89,4363.077,4274.872,4239.487,4172.821,4294.872,450.0
1774430706.4303,90,4335.897,4281.026,4211.282,4178.974,4292.308,450.0
1774430706.4382,91,4315.385,4298.974,4223.59,4174.872,4285.641,16204.0
1774430706.446,92,4316.923,4313.333,4243.077,4181.026,4303.59,450.0
1774430706.4539,93,4320.513,4317.949,4233.333,4185.641,4313.846,450.0
1774430706.4618,94,4324.615,4303.59,4213.333,4183.077,4303.077,450.0
1774430706.4697,95,4336.923,4300.0,4212.308,4188.718,4303.59,16204.0
1774430706.4776,96,4353.846,4329.231,4221.026,4206.667,4312.308,450.0
1774430706.4854,97,4352.308,4344.103,4223.59,4202.051,4301.026,450.0
1774430706.4932,98,4330.256,4313.846,4229.744,4174.872,4286.154,450.0
1774430706.5011,99,4323.077,4297.949,4238.462,4173.333,4286.667,16204.0
1774430706.5091,100,4339.487,4329.231,4250.769,4194.359,4288.718,450.0
1774430706.5169,101,4333.846,4365.128,4253.333,4190.769,4278.462,450.0
1774430706.5248,102,4291.795,4372.308,4222.051,4156.923,4265.641,450.0
1774430706.5326,103,4283.077,4363.077,4202.051,4146.667,4268.205,16204.0
1774430706.5405,104,4308.205,4355.897,4212.308,4157.949,4264.615,450.0
1774430706.5483,105,4300.0,4336.41,4215.385,4147.692,4238.974,450.0
1774430706.5562,106,4284.103,4313.846,4207.692,4148.718,4231.282,450.0
1774430706.5641,107,4299.487,4321.026,4188.205,4177.436,4254.872,16204.0
1774430706.572,108,4301.538,4335.897,4169.744,4176.41,4254.872,450.0
1774430706.5798,109,4273.333,4343.077,4169.744,4150.256,4236.41,450.0
1774430706.5877,110,4251.795,4340.0,4189.231,4138.462,4228.718,450.0
1774430706.5955,111,4250.769,4329.744,4211.282,4142.564,4217.949,16204.0
1774430706.6034,112,4252.821,4335.385,4202.564,4155.385,4207.179,450.0
1774430706.6112,113,4244.103,4364.103,4194.359,4158.974,4210.256,450.0
1774430706.6192,114,4232.308,4372.821,4220.513,4138.974,4209.231,450.0
1774430706.627,115,4240.513,4334.872,4246.154,4129.744,4193.846,16204.0
1774430706.6349,116,4266.154,4313.846,4247.692,4161.026,4201.026,450.0
1774430706.6428,117,4267.692,4344.103,4214.872,4174.872,4224.615,450.0
1774430706.6506,118,4246.154,4376.41,4180.513,4150.256,4223.59,450.0
