time,sample,AF3,T7,Pz,T8,AF4,marker_hardware
1772893790.1358,36,4228.205,4401.538,4182.051,4155.897,4188.205,0.0
1772893790.1436,37,4240.0,4379.487,4186.667,4168.205,4199.487,0.0
1772893790.1514,38,4260.0,4430.256,4176.923,4177.436,4214.359,0.0
1772893790.1592,39,4255.385,4436.923,4177.949,4165.128,4213.333,0.0
1772893790.1669,40,4238.462,4378.974,4176.923,4152.308,4198.974,0.0
1772893790.1747,41,4228.718,4383.59,4170.769,4148.205,4187.179,0.0
1772893790.1824,42,4235.897,4450.769,4163.59,4154.359,4193.846,0.0
1772893790.1902,43,4250.256,4458.974,4158.974,4167.692,4208.718,0.0
1772893790.198,44,4255.385,4427.692,4155.385,4178.974,4218.462,0.0
1772893790.2058,45,4244.103,4424.615,4171.282,4173.846,4211.282,0.0
1772893790.2135,46,4233.333,4431.795,4198.462,4161.538,4194.359,0.0
1772893790.2213,47,4236.923,4419.487,4192.821,4167.692,4208.205,0.0
1772893790.229,48,4236.41,4405.641,4181.026,4168.718,4227.179,0.0
1772893790.2368,49,4235.897,4430.256,4156.41,4159.487,4215.897,0.0
1772893790.2445,50,4245.641,4458.462,4141.538,4164.615,4204.103,0.0
1772893790.2523,51,4238.974,4444.103,4160.0,4168.205,4207.179,0.0
1772893790.2601,52,4226.154,4427.692,4127.692,4162.564,4217.436,0.0
1772893790.2678,53,4232.821,4431.282,4085.641,4161.538,4225.128,0.0
1772893790.2756,54,4251.795,4431.795,4098.462,4169.744,4223.077,0.0
1772893790.2833,55,4256.923,4424.615,4124.103,4178.462,4219.487,0.0
1772893790.2911,56,4248.205,4411.282,4134.359,4183.59,4231.795,0.0
1772893790.2989,57,4244.615,4398.974,4089.744,4183.59,4250.769,0.0
1772893790.3067,58,4238.974,4415.385,4079.487,4170.256,4232.821,0.0
1772893790.3144,59,4246.154,4454.359,4117.949,4169.231,4211.282,0.0
1772893790.3222,60,4258.974,4453.333,4115.897,4182.564,4222.564,0.0
1772893790.3299,61,4237.436,4410.769,4111.795,4170.769,4223.077,0.0
1772893790.3377,62,4216.41,4404.615,4125.641,4157.949,4209.231,0.0
1772893790.3454,63,4233.333,4436.923,4121.026,4169.744,4206.154,0.0
1772893790.3532,64,4252.821,4442.564,4121.538,4170.769,4218.974,450.0
1772893790.361,65,4253.333,4411.795,4131.795,4164.103,4234.359,450.0
1772893790.3688,66,4240.513,4408.718,4132.308,4164.615,4225.641,16216.0
1772893790.3766,67,4231.795,4446.667,4127.179,4165.128,4208.718,450.0
1772893790.3843,68,4234.872,4440.513,4124.615,4166.667,4209.231,16214.0
1772893790.3921,69,4233.846,4387.692,4128.718,4166.667,4213.846,450.0
1772893790.3998,70,4225.128,4393.846,4143.077,4154.872,4206.667,0.0
1772893790.4075,71,4221.026,4424.615,4144.615,4137.949,4191.795,450.0
1772893790.4153,72,4231.282,4410.256,4137.436,4146.154,4190.256,450.0
1772893790.4231,73,4238.462,4406.154,4136.923,4162.051,4210.256,16188.0
1772893790.4309,74,4236.41,4430.256,4144.103,4153.333,4220.513,450.0
1772893790.4386,75,4240.0,4419.487,4156.41,4147.692,4211.282,16222.0
1772893790.4464,76,4236.41,4398.974,4151.795,4154.872,4207.692,450.0
1772893790.4541,77,4224.615,4418.462,4140.513,4157.949,4205.128,450.0
1772893790.4619,78,4217.949,4433.333,4147.692,4155.897,4189.231,450.0
1772893790.4697,79,4214.359,4425.128,4161.026,4148.718,4173.333,16222.0
1772893790.4775,80,4208.718,4415.897,4168.205,4149.744,4185.128,450.0
1772893790.4852,81,4209.744,4402.051,4170.256,4163.59,4203.59,450.0
1772893790.4929,82,4227.179,4397.949,4169.744,4175.897,4203.59,450.0
1772893790.5007,83,4251.795,4422.564,4164.615,4180.0,4201.538,16222.0
1772893790.5084,84,4245.128,4438.974,4168.718,4168.718,4201.538,450.0
1772893790.5162,85,4220.0,4413.333,4163.59,4155.897,4200.513,450.0
1772893790.524,86,4222.564,4403.59,4145.641,4165.641,4197.436,450.0
1772893790.5318,87,4228.718,4402.564,4149.231,4180.513,4187.692,16222.0
1772893790.5395,88,4199.487,4391.795,4150.256,4176.41,4173.333,450.0
1772893790.5473,89,4171.282,4405.641,4141.538,4173.333,4169.744,450.0
1772893790.5551,90,4176.41,4424.103,4143.077,4185.128,4180.513,450.0
1772893790.5628,91,4165.641,4418.462,4143.59,4177.436,4172.308,16222.0
1772893790.5706,92,4136.923,4412.308,4143.59,4160.513,4152.308,450.0
1772893790.5784,93,4140.0,4414.872,4143.59,4161.538,4150.256,450.0
1772893790.5861,94,4146.667,4410.769,4140.513,4157.949,4148.718,450.0
1772893790.5939,95,4144.615,4401.538,4131.795,4154.359,4150.769,16222.0
1772893790.6016,96,4139.487,4388.205,4142.051,4161.538,4150.256,450.0
1772893790.6094,97,4125.128,4395.897,4163.077,4154.872,4138.462,450.0
1772893790.6171,98,4138.974,4428.718,4132.308,4153.333,4152.821,450.0
1772893790.625,99,4172.308,4407.692,4101.538,4166.154,4173.333,16222.0
1772893790.6327,100,4168.205,4372.821,4127.179,4166.667,4162.051,450.0
1772893790.6405,101,4139.487,4398.462,4150.769,4167.692,4155.385,450.0
1772893790.6482,102,4140.0,4435.897,4157.949,4177.436,4168.205,450.0
1772893790.656,103,4155.897,4422.564,4148.718,4173.333,4164.615,16222.0
1772893790.6637,104,4162.051,4401.538,4139.487,4161.026,4151.282,450.0
1772893790.6714,105,4173.846,4420.513,4127.179,4169.744,4164.615,450.0
1772893790.6793,106,4174.359,4438.974,4104.103,4178.462,4187.179,450.0
1772893790.687,107,4158.462,4428.205,4111.282,4166.667,4194.359,16222.0
1772893790.6948,108,4158.974,4408.205,4153.846,4156.41,4183.077,450.0
1772893790.7025,109,4164.103,4402.564,4159.487,4152.821,4159.487,450.0
1772893790.7103,110,4157.436,4418.462,4121.026,4157.949,4157.436,450.0
1772893790.718,111,4165.128,4426.667,4102.051,4168.205,4181.026,16222.0
1772893790.7258,112,4187.179,4403.59,4123.59,4172.308,4195.897,450.0
1772893790.7336,113,4185.641,4403.59,4103.59,4174.872,4191.795,450.0
1772893790.7414,114,4157.949,4437.949,4084.103,4177.949,4180.513,450.0
1772893790.7491,115,4153.333,4424.103,4124.103,4177.436,4175.385,16222.0
1772893790.7569,116,4193.333,4405.128,4136.41,4182.051,4188.718,450.0
1772893790.7646,117,4213.333,4414.872,4127.692,4189.231,4198.974,450.0
1772893790.7724,118,4175.385,4413.333,4139.487,4175.385,4190.256,450.0
1772893790.7801,119,4148.205,4427.692,4135.385,4161.026,4183.59,16222.0
1772893790.788,120,4158.974,4424.615,4133.333,4166.154,4175.897,450.0
1772893790.7957,121,4164.615,4376.41,4129.744,4166.154,4157.949,450.0
1772893790.8035,122,4164.615,4388.718,4121.026,4163.59,4157.436,450.0
1772893790.8112,123,4175.897,4441.538,4119.487,4174.872,4175.897,16222.0
1772893790.8189,124,4178.974,4428.205,4118.462,4183.59,4183.59,450.0
1772893790.8267,125,4162.051,4406.154,4116.923,4178.462,4172.821,450.0
1772893790.8346,126,4162.051,4417.436,4130.256,4177.949,4170.769,450.0
1772893790.8423,127,4171.795,4412.308,4130.769,4169.231,4170.256,234.0
1772893790.85,0,4166.154,4410.256,4127.692,4155.897,4160.0,450.0
1772893790.8578,1,4164.103,4410.769,4155.385,4169.231,4157.436,450.0
1772893790.8655,2,4162.564,4405.128,4164.103,4170.256,4158.974,16219.0
1772893790.8733,3,4156.923,4409.231,4145.641,4152.308,4158.974,450.0
1772893790.881,4,4164.103,4414.359,4148.205,4165.128,4164.103,16228.0
1772893790.8889,5,4176.41,4426.667,4154.359,4185.641,4172.821,450.0
1772893790.8966,6,4169.744,4431.795,4152.821,4172.308,4177.949,0.0
1772893790.9044,7,4166.667,4410.769,4155.385,4157.949,4175.897,450.0
1772893790.9121,8,4186.154,4404.103,4163.077,4168.718,4170.256,450.0
1772893790.9199,9,4198.462,4391.795,4157.436,4177.949,4162.051,16210.0
1772893790.9277,10,4193.846,4388.718,4150.769,4178.974,4165.641,450.0
1772893790.9354,11,4181.538,4452.308,4151.795,4180.0,4181.026,16202.0
1772893790.9433,12,4175.385,4472.308,4140.513,4176.923,4183.077,450.0
1772893790.951,13,4186.154,4387.179,4144.615,4175.897,4176.923,450.0
1772893790.9587,14,4193.333,4366.667,4162.051,4175.385,4171.795,450.0
1772893790.9665,15,4189.744,4437.949,4170.256,4167.179,4162.564,16202.0
1772893790.9742,16,4194.872,4441.538,4172.821,4169.231,4167.179,0.0
1772893790.982,17,4195.385,4403.077,4157.436,4181.026,4180.0,0.0
1772893790.9897,18,4190.256,4414.359,4156.41,4187.692,4181.026,0.0
1772893790.9975,19,4197.949,4430.769,4168.205,4187.692,4180.0,0.0
1772893791.0053,20,4196.41,4434.359,4150.256,4184.615,4183.077,0.0
1772893791.013,21,4189.744,4433.333,4130.769,4189.231,4188.718,0.0
1772893791.0208,22,4187.179,4411.795,4142.564,4183.59,4184.103,0.0
1772893791.0286,23,4183.077,4405.128,4149.231,4164.103,4165.128,0.0
1772893791.0363,24,4192.821,4429.744,4136.41,4161.538,4155.897,0.0
1772893791.044,25,4192.821,4420.513,4142.051,4165.641,4157.949,0.0
1772893791.0519,26,4173.333,4397.436,4146.154,4164.615,4157.436,0.0
1772893791.0597,27,4176.41,4420.0,4161.026,4177.436,4162.051,0.0
1772893791.0674,28,4188.205,4450.256,4176.923,4186.154,4171.282,0.0
1772893791.0751,29,4172.821,4449.231,4114.359,4171.282,4168.205,0.0
1772893791.0829,30,4170.256,4432.821,4082.564,4158.974,4165.641,0.0
1772893791.0906,31,4191.795,4419.487,4153.846,4161.538,4178.974,0.0
1772893791.0985,32,4184.103,4406.154,4186.154,4164.615,4186.667,0.0
1772893791.1063,33,4172.821,4396.923,4145.128,4165.641,4174.872,0.0
1772893791.114,34,4196.41,4408.718,4105.641,4169.231,4164.103,0.0
1772893791.1217,35,4196.41,4411.795,4106.667,4164.615,4158.974,0.0
1772893791.1295,36,4177.949,4397.436,4133.333,4159.487,4170.256,0.0
1772893791.1372,37,4196.923,4414.872,4146.667,4168.718,4197.436,0.0
1772893791.1449,38,4208.205,4456.923,4151.795,4167.692,4196.41,0.0
1772893791.1528,39,4194.359,4463.077,4158.974,4158.974,4183.077,0.0
1772893791.1606,40,4193.333,4421.026,4176.41,4164.103,4189.231,0.0
1772893791.1683,41,4190.256,4401.026,4170.256,4169.231,4186.667,0.0
1772893791.1761,42,4182.051,4423.59,4117.436,4165.641,4171.282,0.0
1772893791.1838,43,4184.615,4426.154,4102.051,4162.564,4168.205,0.0
1772893791.1916,44,4185.641,4408.718,4130.769,4166.154,4174.359,0.0
1772893791.1993,45,4186.667,4418.462,4152.821,4170.769,4180.0,0.0
1772893791.2072,46,4205.641,4430.769,4136.923,4177.436,4190.769,0.0
1772893791.2149,47,4208.718,4427.179,4098.974,4174.872,4186.154,0.0
1772893791.2226,48,4185.128,4432.821,4096.41,4164.615,4175.385,0.0
1772893791.2304,49,4179.487,4422.051,4133.846,4165.128,4190.769,0.0
1772893791.2382,50,4192.821,4400.0,4175.897,4163.077,4192.821,0.0
1772893791.2459,51,4196.41,4400.0,4152.821,4152.308,4170.769,0.0
1772893791.2536,52,4195.897,4411.795,4092.308,4152.821,4181.026,0.0
1772893791.2615,53,4193.333,4406.667,4093.846,4161.026,4204.615,0.0
1772893791.2692,54,4193.333,4406.667,4131.795,4167.179,4198.462,0.0
1772893791.277,55,4208.718,4431.282,4139.487,4173.333,4191.282,0.0
1772893791.2847,56,4208.718,4441.538,4134.872,4167.692,4190.769,0.0
1772893791.2925,57,4177.949,4413.846,4125.128,4160.0,4172.821,0.0
1772893791.3002,58,4167.692,4393.333,4122.051,4168.205,4156.41,0.0
1772893791.308,59,4192.821,4405.128,4135.897,4186.154,4173.846,0.0
1772893791.3158,60,4206.154,4404.615,4127.692,4189.744,4196.41,0.0
1772893791.3236,61,4202.051,4398.462,4122.051,4170.769,4192.821,0.0
1772893791.3313,62,4208.718,4414.359,4136.41,4170.769,4191.795,0.0
1772893791.3391,63,4204.103,4397.436,4131.795,4183.077,4196.41,0.0
1772893791.3468,64,4188.718,4385.641,4127.692,4177.949,4198.462,450.0
1772893791.3546,65,4197.436,4427.179,4131.795,4182.051,4200.0,450.0
1772893791.3624,66,4214.359,4443.59,4128.718,4192.308,4192.308,16234.0
1772893791.3702,67,4220.0,4399.487,4129.744,4183.59,4192.308,450.0
1772893791.3779,68,4204.615,4387.179,4129.231,4170.256,4198.462,16283.0
1772893791.3857,69,4194.359,4411.282,4136.923,4170.769,4188.205,450.0
1772893791.3934,70,4214.359,4415.897,4152.821,4180.513,4176.41,0.0
1772893791.4011,71,4225.128,4420.513,4150.256,4182.051,4190.769,450.0
1772893791.4089,72,4220.513,4430.769,4144.615,4174.359,4208.718,450.0
1772893791.4167,73,4227.179,4424.615,4146.667,4170.256,4209.744,16237.0
1772893791.4245,74,4233.846,4419.487,4149.744,4173.333,4209.744,450.0
1772893791.4322,75,4227.179,4430.769,4159.487,4172.821,4204.103,16175.0
1772893791.44,76,4222.564,4429.231,4159.487,4166.667,4191.282,450.0
1772893791.4477,77,4226.154,4398.462,4149.744,4169.231,4190.769,450.0
1772893791.4555,78,4220.513,4390.256,4153.846,4166.667,4190.769,450.0
1772893791.4632,79,4213.333,4429.231,4171.795,4155.385,4184.103,16175.0
1772893791.4711,80,4214.359,4449.744,4165.128,4153.846,4186.154,450.0
1772893791.4788,81,4220.513,4416.923,4152.821,4155.385,4178.462,450.0
1772893791.4866,82,4234.359,4404.615,4158.462,4160.513,4177.949,450.0
1772893791.4943,83,4238.974,4423.59,4149.744,4171.282,4203.59,16175.0
1772893791.5021,84,4229.231,4426.667,4148.718,4166.667,4212.821,450.0
1772893791.5098,85,4226.154,4406.154,4153.846,4157.436,4200.0,450.0
1772893791.5176,86,4238.974,4394.872,4151.282,4166.667,4192.821,450.0
1772893791.5254,87,4243.59,4418.974,4150.256,4177.949,4197.436,16175.0
1772893791.5332,88,4237.436,4438.974,4134.872,4177.436,4209.744,450.0
1772893791.5409,89,4237.436,4425.128,4134.872,4172.308,4220.0,450.0
1772893791.5487,90,4254.359,4417.949,4145.128,4171.795,4228.718,450.0
1772893791.5564,91,4262.051,4425.128,4146.667,4180.0,4234.872,16175.0
1772893791.5642,92,4238.462,4428.718,4148.205,4185.641,4226.667,450.0
1772893791.5719,93,4229.231,4424.615,4141.026,4179.487,4219.487,450.0
1772893791.5797,94,4258.974,4417.436,4131.795,4171.282,4232.308,450.0
1772893791.5875,95,4280.513,4428.718,4134.872,4175.385,4245.641,16175.0
1772893791.5952,96,4270.256,4422.564,4150.256,4182.564,4242.564,450.0
1772893791.603,97,4250.256,4392.821,4153.333,4180.0,4232.308,450.0
1772893791.6107,98,4239.487,4409.231,4129.744,4172.308,4221.026,450.0
1772893791.6185,99,4237.436,4444.615,4117.949,4160.513,4207.179,16175.0
1772893791.6263,100,4240.513,4431.282,4134.359,4152.308,4201.538,450.0
1772893791.6341,101,4228.205,4414.359,4147.692,4149.744,4203.59,450.0
1772893791.6418,102,4203.59,4428.205,4146.154,4138.974,4194.872,450.0
1772893791.6496,103,4216.923,4414.359,4122.051,4139.487,4188.718,16175.0
1772893791.6573,104,4249.231,4378.462,4107.179,4144.615,4186.154,450.0
1772893791.6651,105,4238.462,4393.333,4127.692,4132.821,4178.462,450.0
1772893791.6728,106,4213.333,4436.41,4143.59,4133.333,4188.718,450.0
1772893791.6807,107,4220.0,4444.615,4141.538,4143.59,4195.897,16175.0
1772893791.6885,108,4241.026,4417.949,4128.718,4143.077,4176.41,450.0
1772893791.6962,109,4243.077,4385.128,4107.692,4140.513,4175.897,450.0
1772893791.7039,110,4225.128,4382.051,4112.821,4144.103,4198.974,450.0
1772893791.7117,111,4211.282,4417.949,4142.051,4147.179,4201.538,16175.0
1772893791.7194,112,4220.513,4431.282,4155.385,4150.256,4192.308,450.0
1772893791.7271,113,4244.615,4408.718,4119.487,4164.615,4203.077,450.0
1772893791.735,114,4249.231,4407.179,4092.821,4169.744,4209.231,450.0
1772893791.7427,115,4238.974,4419.487,4118.974,4162.564,4207.179,16175.0
1772893791.7505,116,4249.744,4412.821,4133.846,4165.641,4221.026,450.0
1772893791.7582,117,4260.513,4408.718,4129.744,4172.821,4226.154,450.0
1772893791.766,118,4251.282,4412.821,4131.282,4172.821,4212.821,450.0
1772893791.7738,119,4244.103,4412.308,4125.128,4171.795,4211.795,16175.0
1772893791.7815,120,4246.667,4415.385,4134.872,4166.667,4221.538,450.0
1772893791.7894,121,4239.487,4409.231,4144.103,4153.846,4204.103,450.0
1772893791.7971,122,4227.179,4397.436,4137.949,4157.436,4182.564,450.0
1772893791.8048,123,4249.744,4405.128,4135.897,4181.538,4211.795,16175.0
1772893791.8126,124,4271.795,4404.615,4142.564,4188.718,4237.949,450.0
1772893791.8203,125,4245.641,4395.897,4146.154,4169.231,4219.487,450.0
1772893791.8281,126,4234.359,4426.667,4150.769,4156.41,4209.744,450.0
1772893791.8358,127,4259.487,4455.385,4151.282,4162.564,4216.41,234.0
1772893791.8437,0,4262.051,4436.923,4147.179,4174.359,4211.795,450.0
1772893791.8514,1,4246.667,4421.026,4150.769,4172.821,4203.077,450.0
1772893791.8592,2,4244.615,4426.667,4153.846,4159.487,4201.538,16232.0
1772893791.8669,3,4242.051,4421.026,4161.026,4165.641,4210.256,450.0
1772893791.8746,4,4240.513,4394.359,4161.026,4178.974,4205.128,16249.0
1772893791.8824,5,4244.615,4384.103,4152.821,4166.667,4186.154,450.0
1772893791.8903,6,4233.846,4413.846,4156.41,4153.333,4185.641,0.0
1772893791.898,7,4221.026,4428.205,4158.974,4154.872,4194.359,450.0
1772893791.9058,8,4239.487,4402.564,4157.949,4164.615,4200.0,450.0
1772893791.9135,9,4261.538,4390.256,4145.641,4173.333,4208.718,16227.0
1772893791.9213,10,4260.513,4419.487,4138.462,4171.282,4210.256,450.0
1772893791.929,11,4253.846,4446.667,4152.308,4165.641,4210.769,16194.0
1772893791.9368,12,4255.385,4434.359,4146.667,4161.538,4213.333,450.0
1772893791.9446,13,4265.641,4413.333,4137.949,4158.974,4212.308,450.0
1772893791.9524,14,4256.41,4420.0,4140.0,4153.333,4198.974,450.0
1772893791.9601,15,4234.359,4423.59,4143.59,4149.744,4184.103,16194.0
1772893791.9679,16,4244.615,4390.256,4143.59,4161.538,4195.385,0.0
1772893791.9756,17,4269.231,4392.821,4136.923,4174.359,4216.923,0.0
1772893791.9834,18,4269.744,4433.333,4141.538,4171.795,4221.026,0.0
1772893791.9911,19,4255.897,4427.179,4144.615,4164.615,4210.256,0.0
1772893791.9989,20,4241.026,4402.564,4160.513,4156.923,4195.897,0.0
1772893792.0067,21,4241.538,4402.564,4145.641,4158.462,4193.846,0.0
1772893792.0144,22,4254.872,4406.154,4132.308,4160.513,4195.897,0.0
1772893792.0222,23,4260.513,4403.077,4186.667,4148.718,4188.718,0.0
1772893792.0299,24,4263.59,4414.872,4192.821,4148.718,4201.026,0.0
1772893792.0377,25,4256.41,4420.0,4164.103,4154.359,4213.333,0.0
1772893792.0454,26,4249.231,4424.615,4171.795,4148.718,4192.821,0.0
1772893792.0533,27,4261.026,4421.026,4178.462,4152.821,4187.692,0.0
1772893792.061,28,4267.692,4389.231,4178.974,4161.026,4208.718,0.0
1772893792.0688,29,4261.026,4394.872,4165.641,4157.436,4214.872,0.0
1772893792.0765,30,4252.308,4435.385,4150.256,4147.692,4203.077,0.0
1772893792.0843,31,4249.231,4445.128,4148.205,4142.564,4183.59,0.0
1772893792.092,32,4251.282,4412.308,4162.051,4146.154,4174.872,0.0
1772893792.0998,33,4251.282,4392.821,4169.744,4149.744,4194.872,0.0
1772893792.1076,34,4240.513,4413.846,4149.231,4135.897,4204.103,0.0
1772893792.1154,35,4232.821,4430.769,4138.462,4123.077,4188.718,0.0
1772893792.1231,36,4244.615,4425.641,4140.513,4137.949,4196.923,0.0
1772893792.1309,37,4253.846,4399.487,4131.282,4151.795,4206.667,0.0
1772893792.1386,38,4246.667,4402.051,4123.59,4148.718,4190.769,0.0
1772893792.1464,39,4238.974,4432.308,4104.615,4149.744,4196.923,0.0
1772893792.1542,40,4241.026,4409.231,4110.769,4144.615,4213.846,0.0
1772893792.1619,41,4247.692,4379.487,4122.051,4138.462,4209.744,0.0
1772893792.1697,42,4244.615,4415.385,4088.205,4152.308,4206.667,0.0
1772893792.1774,43,4236.41,4429.744,4091.795,4151.282,4206.154,0.0
1772893792.1852,44,4251.795,4376.41,4126.667,4138.974,4204.103,0.0
1772893792.1929,45,4264.103,4376.41,4132.821,4147.692,4205.128,0.0
1772893792.2007,46,4241.538,4435.385,4120.0,4152.821,4205.641,0.0
1772893792.2085,47,4230.256,4433.333,4094.872,4137.949,4209.744,0.0
1772893792.2163,48,4250.769,4392.821,4109.231,4131.795,4209.231,0.0
1772893792.224,49,4266.667,4385.641,4126.667,4142.564,4195.897,0.0
1772893792.2318,50,4246.667,4408.205,4112.308,4140.0,4182.051,0.0
1772893792.2395,51,4221.026,4429.231,4117.436,4127.179,4180.513,0.0
1772893792.2473,52,4221.538,4419.487,4134.359,4131.282,4184.103,0.0
1772893792.255,53,4226.154,4390.256,4130.256,4142.051,4180.513,0.0
1772893792.2629,54,4237.949,4391.282,4125.128,4156.41,4195.385,0.0
1772893792.2706,55,4254.872,4409.744,4128.718,4164.103,4212.308,0.0
1772893792.2784,56,4251.282,4393.846,4132.821,4156.923,4204.103,0.0
1772893792.2861,57,4243.59,4378.462,4137.436,4161.026,4200.513,0.0
1772893792.2939,58,4240.0,4406.667,4133.333,4165.128,4195.897,0.0
1772893792.3016,59,4224.103,4428.718,4132.308,4148.718,4188.205,0.0
1772893792.3094,60,4222.051,4414.872,4141.026,4145.128,4202.564,0.0
1772893792.3172,61,4240.0,4418.974,4141.026,4161.538,4214.359,0.0
1772893792.3249,62,4244.103,4436.41,4141.026,4166.667,4200.513,0.0
1772893792.3327,63,4235.897,4404.103,4138.974,4155.897,4194.359,0.0
1772893792.3404,64,4232.821,4365.641,4140.0,4149.231,4196.41,450.0
1772893792.3482,65,4228.205,4376.41,4154.359,4152.308,4189.231,450.0
1772893792.3559,66,4226.154,4412.821,4159.487,4160.0,4193.846,16201.0
1772893792.3637,67,4227.179,4434.359,4154.359,4170.769,4203.077,450.0
1772893792.3715,68,4218.974,4416.923,4150.769,4169.231,4194.359,16193.0
1772893792.3793,69,4221.538,4386.667,4156.41,4158.462,4184.103,450.0
1772893792.387,70,4242.564,4401.538,4167.179,4158.974,4188.718,0.0
1772893792.3948,71,4235.385,4428.205,4165.641,4159.487,4192.308,450.0
1772893792.4025,72,4216.923,4403.077,4155.897,4157.436,4192.821,450.0
1772893792.4103,73,4222.564,4378.974,4156.923,4150.256,4183.59,16191.0
1772893792.4181,74,4229.231,4405.128,4165.641,4136.923,4177.436,450.0
1772893792.4259,75,4242.564,4425.128,4140.513,4144.615,4200.0,16218.0
1772893792.4336,76,4251.282,4389.744,4133.333,4158.974,4216.41,450.0
1772893792.4414,77,4246.154,4371.795,4151.795,4165.641,4219.487,450.0
1772893792.4491,78,4249.231,4412.308,4138.974,4166.154,4224.103,450.0
1772893792.4569,79,4255.897,4437.436,4140.513,4156.923,4216.923,16218.0
1772893792.4646,80,4262.564,4420.513,4148.205,4157.436,4221.026,450.0
1772893792.4724,81,4261.538,4414.872,4143.077,4165.641,4233.333,450.0
1772893792.4802,82,4256.41,4423.59,4145.641,4166.154,4221.538,450.0
1772893792.4879,83,4261.538,4404.103,4146.667,4169.744,4212.821,16218.0
1772893792.4957,84,4271.795,4397.436,4147.692,4178.462,4234.872,450.0
1772893792.5035,85,4275.385,4410.769,4134.872,4178.462,4251.795,450.0
1772893792.5112,86,4270.256,4411.795,4128.205,4171.795,4242.564,450.0
1772893792.519,87,4260.0,4426.667,4138.462,4173.846,4239.487,16218.0
1772893792.5268,88,4244.103,4442.564,4139.487,4177.949,4238.462,450.0
1772893792.5345,89,4248.718,4427.692,4138.974,4174.872,4229.744,450.0
1772893792.5423,90,4268.718,4418.462,4136.923,4170.769,4229.744,450.0
1772893792.55,91,4266.667,4425.128,4136.923,4160.513,4224.615,16218.0
1772893792.5577,92,4257.949,4398.974,4140.513,4149.744,4222.564,450.0
1772893792.5655,93,4260.513,4372.821,4125.128,4153.333,4239.487,450.0
1772893792.5732,94,4257.436,4398.974,4122.564,4158.462,4243.077,450.0
1772893792.5811,95,4256.923,4435.385,4135.385,4163.59,4231.795,16218.0
1772893792.5888,96,4269.231,4434.872,4133.333,4173.333,4233.846,450.0
1772893792.5967,97,4269.744,4420.513,4130.769,4173.846,4237.949,450.0
1772893792.6045,98,4261.026,4431.795,4127.179,4168.718,4236.41,450.0
1772893792.6123,99,4250.256,4422.564,4128.718,4168.718,4236.41,16218.0
1772893792.62,100,4242.051,4378.974,4130.769,4166.667,4224.615,450.0
1772893792.6278,101,4241.538,4389.231,4121.026,4159.487,4204.103,450.0
1772893792.6356,102,4241.538,4448.205,4121.538,4159.487,4208.718,450.0
1772893792.6434,103,4260.0,4445.128,4122.051,4176.923,4247.179,16218.0
1772893792.6511,104,4274.359,4387.179,4130.769,4182.051,4252.308,450.0
1772893792.6589,105,4257.436,4374.872,4140.0,4161.026,4216.41,450.0
1772893792.6666,106,4249.231,4411.282,4120.513,4161.026,4212.308,450.0
1772893792.6744,107,4252.821,4422.564,4125.641,4181.026,4229.744,16218.0
1772893792.6822,108,4245.128,4416.41,4145.641,4180.0,4228.205,450.0
1772893792.6899,109,4238.462,4418.974,4137.949,4168.205,4221.026,450.0
1772893792.6977,110,4245.641,4421.026,4137.436,4172.308,4225.128,450.0
1772893792.7054,111,4253.846,4425.128,4146.154,4180.513,4232.308,16218.0
1772893792.7132,112,4251.795,4409.231,4143.59,4168.718,4223.59,450.0
1772893792.721,113,4257.436,4378.974,4139.487,4166.154,4214.359,450.0
1772893792.7287,114,4253.333,4396.41,4145.641,4181.026,4221.026,450.0
1772893792.7365,115,4224.103,4436.41,4153.333,4185.641,4222.564,16218.0
1772893792.7443,116,4218.462,4413.846,4156.41,4175.897,4206.667,450.0
1772893792.752,117,4253.846,4387.692,4155.385,4160.0,4205.641,450.0
1772893792.7598,118,4296.41,4443.59,4158.974,4158.974,4244.103,450.0
1772893792.7675,119,4327.692,4464.615,4158.462,4174.872,4275.897,16218.0
1772893792.7753,120,4356.923,4388.205,4167.179,4178.974,4278.462,450.0
1772893792.783,121,4377.949,4354.359,4173.333,4173.333,4289.744,450.0
1772893792.7909,122,4369.231,4408.718,4151.282,4176.41,4288.718,450.0
1772893792.7986,123,4354.359,4446.154,4138.462,4186.154,4270.256,16218.0
1772893792.8064,124,4341.538,4430.256,4142.564,4181.026,4259.487,450.0
1772893792.8141,125,4324.615,4390.769,4151.282,4155.897,4244.103,450.0
1772893792.8219,126,4320.513,4387.692,4166.667,4153.846,4237.949,450.0
1772893792.8296,127,4320.0,4417.949,4160.513,4166.667,4238.974,234.0
1772893792.8374,0,4307.179,4405.641,4156.41,4157.436,4222.051,450.0
1772893792.8452,1,4295.385,4372.308,4162.051,4151.282,4211.795,450.0
1772893792.853,2,4306.667,4406.154,4152.308,4170.769,4241.538,16185.0
1772893792.8607,3,4323.077,4454.872,4143.077,4181.538,4264.615,450.0
1772893792.8685,4,4317.436,4432.308,4144.615,4169.231,4241.538,16186.0
1772893792.8762,5,4312.821,4407.692,4145.641,4171.282,4233.846,450.0
1772893792.8839,6,4324.615,4418.462,4131.795,4185.128,4255.897,0.0
1772893792.8918,7,4327.179,4404.615,4162.051,4180.513,4251.795,450.0
1772893792.8995,8,4320.0,4371.282,4166.154,4170.256,4236.41,450.0
1772893792.9073,9,4324.615,4366.667,4092.821,4170.769,4245.641,16193.0
1772893792.915,10,4325.641,4417.436,4109.744,4171.282,4258.974,450.0
1772893792.9228,11,4315.897,4452.821,4187.179,4172.308,4263.077,16214.0
1772893792.9305,12,4318.974,4430.256,4182.051,4174.872,4261.026,450.0
1772893792.9383,13,4337.949,4430.256,4125.128,4178.974,4257.436,450.0
1772893792.9461,14,4333.846,4449.231,4101.538,4177.436,4259.487,450.0
1772893792.9539,15,4307.179,4417.949,4123.59,4160.0,4251.282,16214.0
1772893792.9616,16,4313.333,4389.744,4143.077,4162.051,4242.564,0.0
1772893792.9694,17,4319.487,4408.718,4144.103,4180.0,4246.667,0.0
1772893792.9771,18,4298.462,4423.59,4150.256,4181.538,4260.513,0.0
1772893792.985,19,4305.641,4418.974,4160.513,4176.41,4266.154,0.0
1772893792.9928,20,4324.615,4403.59,4181.538,4167.692,4242.051,0.0
1772893793.0007,21,4318.462,4392.821,4179.487,4169.231,4234.872,0.0
1772893793.0084,22,4305.641,4408.718,4149.744,4174.359,4256.41,0.0
1772893793.0162,23,4308.205,4431.795,4134.359,4174.872,4264.103,0.0
1772893793.0239,24,4310.256,4431.795,4124.103,4181.026,4253.333,0.0
1772893793.0317,25,4291.795,4413.846,4136.923,4178.974,4228.205,0.0
1772893793.0394,26,4285.128,4405.641,4116.41,4173.846,4215.897,0.0
1772893793.0471,27,4301.538,4400.513,4083.077,4179.487,4239.487,0.0
1772893793.055,28,4305.641,4395.897,4108.718,4182.051,4265.128,0.0
1772893793.0627,29,4297.436,4409.231,4146.667,4181.026,4259.487,0.0
1772893793.0705,30,4296.923,4435.897,4160.513,4186.154,4250.256,0.0
1772893793.0782,31,4296.923,4445.641,4126.667,4184.103,4255.897,0.0
1772893793.086,32,4291.282,4416.41,4101.538,4174.359,4249.231,0.0
1772893793.0937,33,4294.359,4405.128,4132.821,4180.0,4248.205,0.0
1772893793.1016,34,4288.718,4429.744,4145.128,4185.128,4255.385,0.0
1772893793.1094,35,4270.769,4444.103,4132.821,4169.744,4240.513,0.0
1772893793.1171,36,4270.256,4413.846,4141.026,4165.128,4230.256,0.0
1772893793.1248,37,4280.513,4378.462,4146.154,4173.846,4237.949,0.0
1772893793.1326,38,4269.744,4406.154,4138.974,4176.41,4243.59,0.0
1772893793.1403,39,4255.897,4429.231,4138.462,4181.538,4244.615,0.0
1772893793.1481,40,4258.974,4410.256,4143.077,4180.0,4234.359,0.0
1772893793.1559,41,4260.513,4423.077,4143.077,4170.256,4219.487,0.0
1772893793.1638,42,4256.923,4454.359,4143.59,4170.256,4224.103,0.0
1772893793.1716,43,4261.026,4430.256,4150.769,4170.769,4237.949,0.0
1772893793.1795,44,4278.462,4391.795,4161.538,4175.385,4245.641,0.0
1772893793.1874,45,4274.359,4391.282,4156.41,4182.051,4236.923,0.0
1772893793.1952,46,4255.897,4416.923,4150.769,4170.769,4222.051,0.0
1772893793.2031,47,4264.615,4463.59,4160.0,4166.667,4225.641,0.0
1772893793.211,48,4276.41,4455.897,4166.154,4178.974,4233.333,0.0
1772893793.2188,49,4274.359,4397.949,4173.333,4182.564,4230.256,0.0
1772893793.2267,50,4265.128,4401.538,4168.718,4169.744,4224.615,0.0
1772893793.2345,51,4257.949,4439.487,4151.282,4166.154,4233.333,0.0
1772893793.2422,52,4257.949,4442.051,4151.795,4177.949,4242.564,0.0
1772893793.2501,53,4257.949,4430.769,4157.436,4181.026,4232.308,0.0
1772893793.258,54,4268.718,4444.615,4160.0,4180.0,4226.154,0.0
1772893793.2659,55,4277.436,4445.641,4150.256,4171.282,4232.821,0.0
1772893793.2737,56,4271.282,4414.872,4142.051,4163.077,4236.41,0.0
1772893793.2816,57,4271.282,4406.154,4147.692,4168.718,4230.256,0.0
1772893793.2894,58,4284.615,4444.615,4150.256,4175.897,4234.359,0.0
1772893793.2973,59,4295.385,4465.128,4154.359,4179.487,4252.821,0.0
1772893793.3051,60,4297.949,4428.718,4148.205,4186.667,4268.205,0.0
1772893793.3131,61,4293.333,4406.154,4151.795,4184.103,4260.0,0.0
1772893793.321,62,4284.103,4422.051,4136.923,4169.231,4238.974,0.0
1772893793.3288,63,4275.385,4408.718,4126.154,4157.949,4228.718,0.0
1772893793.3366,64,4284.103,4388.205,4147.179,4154.359,4234.872,450.0
1772893793.3445,65,4296.923,4414.872,4136.41,4168.205,4248.205,450.0
1772893793.3523,66,4284.103,4448.205,4135.385,4177.949,4248.205,16176.0
1772893793.3602,67,4271.282,4423.59,4146.667,4171.282,4245.128,450.0
1772893793.3681,68,4278.462,4386.154,4140.513,4167.179,4244.615,16171.0
1772893793.376,69,4279.487,4412.821,4145.128,4166.154,4235.897,450.0
1772893793.3838,70,4272.308,4455.385,4144.103,4165.641,4236.41,0.0
1772893793.3917,71,4269.231,4454.872,4144.615,4169.231,4246.667,450.0
1772893793.3995,72,4274.872,4441.026,4135.385,4177.436,4261.026,450.0
1772893793.4072,73,4280.0,4422.564,4129.744,4169.231,4251.282,16171.0
1772893793.415,74,4274.872,4412.821,4142.051,4155.897,4225.641,450.0
1772893793.4228,75,4271.282,4424.615,4131.795,4168.205,4230.256,16226.0
1772893793.4306,76,4270.769,4414.872,4117.436,4173.846,4246.154,450.0
1772893793.4383,77,4273.333,4393.333,4134.359,4162.564,4252.308,450.0
1772893793.4462,78,4275.897,4416.923,4153.333,4166.154,4262.051,450.0
1772893793.454,79,4278.974,4443.077,4148.205,4183.59,4264.103,16226.0
1772893793.4619,80,4297.436,4432.308,4119.487,4198.462,4264.615,450.0
1772893793.4698,81,4314.872,4421.538,4114.872,4195.897,4275.897,450.0
1772893793.4777,82,4305.641,4428.718,4134.872,4182.051,4276.41,450.0
1772893793.4855,83,4287.692,4431.282,4138.974,4176.41,4259.487,16226.0
1772893793.4933,84,4283.59,4420.513,4144.103,4183.077,4250.769,450.0
1772893793.501,85,4278.974,4403.59,4127.179,4197.949,4261.026,450.0
1772893793.5089,86,4267.692,4401.538,4109.231,4193.333,4268.205,450.0
1772893793.5167,87,4270.769,4420.0,4133.846,4174.872,4262.051,16226.0
1772893793.5247,88,4280.0,4430.769,4125.128,4183.077,4252.821,450.0
1772893793.5325,89,4269.744,4425.641,4100.0,4188.718,4246.154,450.0
1772893793.5404,90,4266.667,4418.462,4122.051,4181.026,4257.949,450.0
1772893793.5482,91,4274.359,4410.769,4134.359,4180.513,4267.179,16226.0
1772893793.5561,92,4266.667,4410.769,4120.513,4176.923,4255.897,450.0
1772893793.5639,93,4263.59,4418.974,4101.538,4173.333,4256.41,450.0
1772893793.5718,94,4277.949,4418.974,4107.692,4182.051,4266.667,450.0
1772893793.5797,95,4292.821,4426.154,4126.667,4192.308,4266.667,16226.0
1772893793.5874,96,4289.744,4425.128,4122.564,4189.231,4260.513,450.0
1772893793.5952,97,4282.564,4395.897,4118.974,4187.692,4269.744,450.0
1772893793.6029,98,4285.128,4406.667,4125.641,4193.846,4279.487,450.0
1772893793.6108,99,4280.0,4435.385,4124.615,4190.256,4273.846,16226.0
1772893793.6186,100,4281.026,4409.231,4126.154,4181.538,4268.718,450.0
1772893793.6264,101,4294.359,4402.051,4136.41,4186.154,4263.59,450.0
1772893793.6342,102,4293.846,4431.795,4136.923,4182.564,4256.41,450.0
1772893793.6421,103,4282.564,4405.128,4145.641,4164.103,4260.513,16226.0
1772893793.6499,104,4278.462,4363.59,4160.0,4162.051,4263.077,450.0
1772893793.6578,105,4286.667,4395.385,4160.0,4187.692,4264.103,450.0
1772893793.6656,106,4293.846,4428.718,4165.128,4206.667,4269.231,450.0
1772893793.6735,107,4282.051,4427.692,4163.077,4190.769,4258.974,16226.0
1772893793.6814,108,4270.256,4428.205,4152.308,4175.897,4254.359,450.0
1772893793.6893,109,4258.974,4398.974,4148.205,4179.487,4258.974,450.0
1772893793.6971,110,4252.821,4384.103,4149.744,4181.538,4255.897,450.0
1772893793.705,111,4278.462,4416.41,4149.744,4182.564,4256.923,16226.0
1772893793.7128,112,4290.256,4422.564,4147.692,4179.487,4251.795,450.0
1772893793.7207,113,4266.154,4398.974,4156.923,4177.949,4241.026,450.0
1772893793.7285,114,4257.949,4416.41,4143.59,4187.179,4244.103,450.0
1772893793.7365,115,4279.487,4464.615,4129.744,4197.949,4265.641,16226.0
1772893793.7443,116,4293.846,4466.667,4132.308,4204.615,4281.538,450.0
1772893793.752,117,4281.538,4424.615,4147.692,4196.41,4267.692,450.0
1772893793.7598,118,4267.692,4409.231,4143.59,4179.487,4247.179,450.0
1772893793.7675,119,4268.205,4429.231,4122.051,4170.256,4247.692,16226.0
1772893793.7754,120,4269.744,4424.103,4169.744,4174.872,4251.795,450.0
1772893793.7832,121,4263.59,4397.949,4197.436,4182.564,4240.513,450.0
1772893793.7912,122,4252.821,4423.077,4170.256,4176.923,4227.692,450.0
1772893793.799,123,4256.41,4454.359,4181.538,4177.949,4238.462,16226.0
1772893793.8069,124,4272.821,4428.205,4187.179,4186.667,4259.487,450.0
1772893793.8147,125,4275.385,4421.538,4176.923,4182.051,4253.846,450.0
1772893793.8226,126,4255.385,4449.231,4169.744,4174.359,4227.179,450.0
1772893793.8304,127,4227.179,4409.231,4180.0,4162.051,4202.051,234.0
1772893793.8382,0,4238.974,4368.718,4185.641,4157.436,4208.205,450.0
1772893793.846,1,4276.923,4414.359,4150.769,4180.0,4244.103,450.0
1772893793.8539,2,4270.256,4438.974,4113.846,4182.564,4245.641,16191.0
1772893793.8617,3,4254.359,4414.359,4106.154,4169.231,4233.333,450.0
1772893793.8696,4,4276.923,4406.667,4147.692,4178.462,4255.897,16095.0
1772893793.8774,5,4290.256,4405.128,4178.974,4176.41,4256.41,450.0
1772893793.8853,6,4272.308,4404.615,4134.359,4165.128,4230.769,0.0
1772893793.8932,7,4257.949,4417.436,4098.974,4176.41,4231.795,450.0
1772893793.9011,8,4263.077,4408.718,4112.821,4184.615,4246.154,450.0
1772893793.9089,9,4267.692,4391.795,4145.128,4174.872,4249.744,16188.0
1772893793.9168,10,4262.564,4415.897,4156.923,4173.333,4241.538,450.0
1772893793.9247,11,4262.051,4437.436,4103.077,4177.949,4224.615,16237.0
1772893793.9325,12,4269.744,4427.179,4067.179,4171.282,4224.615,450.0
1772893793.9404,13,4268.205,4412.821,4108.205,4167.692,4243.077,450.0
1772893793.9483,14,4251.795,4414.872,4153.333,4175.385,4242.051,450.0
1772893793.9561,15,4235.385,4434.359,4148.718,4176.923,4234.359,16237.0
1772893793.9638,16,4231.795,4425.128,4094.872,4173.846,4243.077,0.0
1772893793.9716,17,4237.436,4381.538,4089.744,4170.769,4249.744,0.0
1772893793.9793,18,4233.333,4388.718,4131.282,4175.385,4250.256,0.0
1772893793.9871,19,4221.538,4440.513,4127.692,4177.949,4242.564,0.0
1772893793.9948,20,4228.205,4447.692,4123.59,4173.333,4241.026,0.0
1772893794.0028,21,4253.846,4416.41,4129.744,4187.692,4258.974,0.0
1772893794.0106,22,4245.128,4400.513,4118.974,4193.333,4251.795,0.0
1772893794.0184,23,4224.615,4408.718,4130.256,4179.487,4227.179,0.0
1772893794.0261,24,4228.205,4417.949,4149.744,4178.462,4230.256,0.0
1772893794.034,25,4220.0,4396.923,4150.256,4179.487,4230.256,0.0
1772893794.0418,26,4215.385,4374.359,4147.179,4179.487,4215.385,0.0
1772893794.0498,27,4218.462,4383.59,4148.718,4176.923,4208.205,0.0
1772893794.0576,28,4207.692,4388.205,4147.692,4171.795,4206.154,0.0
1772893794.0655,29,4207.692,4385.128,4162.051,4178.462,4209.744,0.0
1772893794.0733,30,4211.795,4414.359,4171.795,4184.103,4215.385,0.0
1772893794.0812,31,4200.513,4439.487,4168.718,4177.436,4209.231,0.0
1772893794.089,32,4178.974,4424.615,4169.231,4171.795,4189.231,0.0
1772893794.0969,33,4168.205,4395.385,4162.564,4177.436,4178.974,0.0
1772893794.1049,34,4177.949,4389.744,4165.128,4180.0,4190.256,0.0
1772893794.1127,35,4197.436,4402.051,4170.769,4170.769,4194.872,0.0
1772893794.1206,36,4203.077,4409.231,4161.026,4174.359,4195.385,0.0
1772893794.1284,37,4186.667,4399.487,4151.795,4182.564,4188.718,0.0
1772893794.1363,38,4179.487,4394.872,4171.795,4178.974,4182.051,0.0
1772893794.1441,39,4194.872,4397.436,4171.282,4182.051,4199.487,0.0
1772893794.152,40,4196.923,4381.026,4155.897,4175.385,4201.026,0.0
1772893794.16,41,4187.179,4383.59,4163.077,4158.974,4181.026,0.0
1772893794.1678,42,4189.231,4411.795,4136.923,4165.128,4184.615,0.0
1772893794.1757,43,4202.564,4414.359,4127.179,4178.974,4207.692,0.0
1772893794.1835,44,4220.513,4403.59,4162.564,4181.026,4221.538,0.0
1772893794.1914,45,4223.077,4401.026,4158.462,4180.513,4215.897,0.0
1772893794.1993,46,4214.872,4419.487,4136.41,4186.154,4214.872,0.0
1772893794.2071,47,4213.333,4437.949,4121.538,4183.077,4221.026,0.0
1772893794.215,48,4205.128,4427.179,4128.718,4174.872,4213.333,0.0
1772893794.2229,49,4197.436,4410.769,4126.154,4182.564,4201.538,0.0
1772893794.2307,50,4192.308,4411.282,4154.359,4184.103,4196.923,0.0
1772893794.2386,51,4186.667,4395.897,4202.564,4181.538,4204.103,0.0
1772893794.2464,52,4192.308,4379.487,4169.231,4193.846,4215.385,0.0
1772893794.2543,53,4188.205,4417.436,4107.179,4186.667,4208.718,0.0
1772893794.2622,54,4177.436,4449.744,4132.308,4172.821,4205.641,0.0
1772893794.2701,55,4178.462,4415.385,4188.718,4185.641,4214.359,0.0
1772893794.2779,56,4177.436,4398.974,4171.282,4189.231,4202.051,0.0
1772893794.2858,57,4176.41,4412.821,4094.872,4175.897,4189.231,0.0
1772893794.2936,58,4186.154,4398.462,4074.359,4174.359,4194.359,0.0
1772893794.3015,59,4191.795,4404.103,4126.154,4180.513,4196.923,0.0
1772893794.3093,60,4181.026,4433.846,4173.333,4179.487,4192.821,0.0
1772893794.3173,61,4171.282,4428.205,4182.564,4176.41,4196.41,0.0
1772893794.3251,62,4173.333,4418.462,4171.282,4181.538,4192.308,0.0
1772893794.333,63,4167.179,4428.718,4161.538,4179.487,4183.077,0.0
1772893794.3409,64,4161.026,4405.128,4131.282,4172.308,4194.359,450.0
1772893794.3487,65,4175.385,4370.769,4086.154,4178.462,4192.821,450.0
1772893794.3565,66,4190.256,4407.692,4102.051,4187.179,4170.769,16202.0
1772893794.3644,67,4184.615,4443.077,4146.667,4186.667,4173.333,450.0
1772893794.3724,68,4158.462,4404.103,4150.769,4172.821,4174.872,16167.0
1772893794.3802,69,4146.154,4385.641,4132.821,4167.692,4163.077,450.0
1772893794.3881,70,4175.897,4420.513,4101.026,4189.744,4173.846,0.0
1772893794.3959,71,4195.897,4428.205,4112.821,4199.487,4182.564,450.0
1772893794.4038,72,4183.077,4413.846,4129.231,4193.846,4186.667,450.0
1772893794.4116,73,4173.846,4408.718,4104.103,4195.385,4202.564,16188.0
1772893794.4195,74,4177.949,4407.692,4102.051,4190.769,4197.436,450.0
1772893794.4274,75,4174.872,4411.282,4120.513,4176.923,4187.692,16232.0
1772893794.4353,76,4167.692,4382.051,4123.077,4170.256,4195.897,450.0
1772893794.4431,77,4180.513,4341.026,4132.308,4180.513,4191.282,450.0
1772893794.4509,78,4192.821,4356.923,4144.103,4185.641,4174.872,450.0
1772893794.4586,79,4185.641,4386.154,4143.077,4180.513,4180.0,16232.0
1772893794.4665,80,4179.487,4389.231,4146.154,4192.308,4207.179,450.0
1772893794.4744,81,4179.487,4376.923,4156.41,4196.923,4215.385,450.0
1772893794.4823,82,4182.564,4376.41,4149.231,4173.846,4192.308,450.0
1772893794.4901,83,4182.051,4396.923,4142.564,4157.949,4168.205,16232.0
1772893794.498,84,4182.051,4388.205,4151.282,4167.179,4173.333,450.0
1772893794.5059,85,4188.718,4354.359,4164.103,4176.923,4192.821,450.0
1772893794.5138,86,4183.077,4370.256,4155.897,4167.692,4189.231,450.0
1772893794.5217,87,4178.974,4426.154,4145.641,4166.154,4190.256,16232.0
1772893794.5296,88,4186.667,4423.077,4140.0,4170.256,4203.59,450.0
1772893794.5375,89,4181.026,4374.359,4141.026,4156.41,4195.385,450.0
1772893794.5453,90,4177.949,4378.462,4157.436,4152.308,4187.179,450.0
1772893794.5532,91,4196.41,4418.974,4160.0,4164.103,4190.256,16232.0
1772893794.561,92,4213.846,4418.974,4157.949,4163.077,4189.744,450.0
1772893794.5689,93,4211.795,4370.769,4161.538,4158.974,4202.051,450.0
1772893794.5767,94,4203.077,4359.487,4162.564,4165.128,4212.821,450.0
1772893794.5847,95,4211.795,4387.692,4175.385,4168.205,4204.103,16232.0
1772893794.5925,96,4216.923,4382.051,4166.667,4167.179,4201.026,450.0
1772893794.6004,97,4210.769,4389.231,4140.0,4169.744,4210.256,450.0
1772893794.6082,98,4218.974,4430.256,4134.359,4174.872,4216.41,450.0
1772893794.6161,99,4213.846,4433.846,4151.282,4171.282,4204.615,16232.0
1772893794.624,100,4197.436,4421.538,4157.436,4170.256,4189.231,450.0
1772893794.6319,101,4207.692,4408.718,4157.436,4174.359,4196.41,450.0
1772893794.6397,102,4216.41,4385.641,4170.256,4164.615,4200.0,450.0
1772893794.6476,103,4208.205,4401.026,4138.974,4164.103,4177.949,16232.0
1772893794.6555,104,4207.692,4420.0,4107.179,4178.974,4163.077,450.0
1772893794.6633,105,4204.615,4406.667,4132.308,4187.179,4184.103,450.0
1772893794.6711,106,4203.59,4424.615,4154.872,4187.692,4207.179,450.0
1772893794.679,107,4220.0,4443.59,4167.179,4191.795,4201.538,16232.0
1772893794.6869,108,4223.077,4409.744,4135.385,4195.897,4189.744,450.0
1772893794.6948,109,4213.333,4401.538,4089.231,4193.846,4187.692,450.0
1772893794.7027,110,4220.0,4427.179,4121.538,4186.667,4194.872,450.0
1772893794.7105,111,4230.256,4410.256,4179.487,4181.026,4203.077,16232.0
1772893794.7184,112,4214.359,4375.897,4175.897,4171.282,4190.256,450.0
1772893794.7262,113,4206.154,4375.897,4121.026,4168.205,4181.538,450.0
1772893794.7341,114,4228.718,4412.821,4077.949,4180.0,4193.846,450.0
1772893794.742,115,4239.487,4434.359,4103.59,4177.949,4194.359,16232.0
1772893794.7498,116,4226.154,4410.256,4156.923,4170.256,4183.077,450.0
1772893794.7577,117,4217.949,4385.128,4176.41,4170.256,4180.0,450.0
1772893794.7656,118,4236.41,4399.487,4135.897,4171.795,4192.308,450.0
1772893794.7734,119,4245.641,4401.026,4069.231,4167.692,4199.487,16232.0
1772893794.7812,120,4228.718,4377.949,4083.59,4164.615,4186.154,450.0
1772893794.7891,121,4222.564,4394.359,4150.256,4175.385,4182.564,450.0
1772893794.797,122,4218.974,4431.795,4197.436,4172.821,4200.513,450.0
1772893794.8048,123,4217.436,4433.333,4185.641,4163.59,4208.205,16232.0
1772893794.8127,124,4232.308,4398.462,4126.154,4169.744,4197.436,450.0
1772893794.8205,125,4232.308,4394.359,4120.513,4171.282,4195.385,450.0
1772893794.8284,126,4214.359,4423.077,4116.41,4165.128,4194.359,450.0
1772893794.8362,127,4212.821,4395.897,4099.487,4156.923,4171.282,234.0
1772893794.8442,0,4223.077,4355.897,4122.564,4156.41,4169.744,450.0
1772893794.852,1,4227.692,4395.385,4131.282,4170.256,4199.487,450.0
1772893794.8599,2,4235.385,4439.487,4132.308,4180.0,4206.667,16243.0
1772893794.8677,3,4251.282,4414.359,4131.282,4182.564,4198.462,450.0
1772893794.8756,4,4249.231,4394.872,4122.051,4186.154,4203.59,16228.0
1772893794.8834,5,4231.282,4411.282,4125.641,4187.692,4211.282,450.0
1772893794.8913,6,4225.128,4408.205,4138.462,4186.667,4216.923,0.0
1772893794.8992,7,4221.538,4383.59,4138.462,4180.0,4205.641,450.0
1772893794.9071,8,4224.615,4384.103,4133.333,4178.462,4190.256,450.0
1772893794.915,9,4229.744,4392.308,4132.821,4180.513,4189.231,16225.0
1772893794.9228,10,4218.462,4394.872,4142.564,4168.718,4186.154,450.0
1772893794.9306,11,4216.41,4397.436,4159.487,4165.641,4182.051,16201.0
1772893794.9384,12,4224.615,4382.051,4157.436,4174.359,4185.641,450.0
1772893794.9463,13,4229.744,4379.487,4148.718,4175.897,4198.974,450.0
1772893794.9542,14,4232.821,4409.744,4152.821,4180.0,4213.333,450.0
1772893794.9621,15,4232.821,4417.436,4158.462,4183.59,4209.231,16201.0
1772893794.9699,16,4232.308,4396.923,4162.564,4173.846,4197.436,0.0
1772893794.9778,17,4228.718,4380.0,4158.462,4164.615,4188.205,0.0
1772893794.9857,18,4225.128,4374.359,4156.41,4171.282,4184.103,0.0
1772893794.9935,19,4225.641,4392.821,4162.564,4183.59,4198.462,0.0
1772893795.0015,20,4228.718,4402.564,4166.667,4178.974,4208.718,0.0
1772893795.0093,21,4237.949,4375.385,4168.205,4171.282,4203.077,0.0
1772893795.0172,22,4245.128,4394.359,4162.564,4180.513,4201.026,0.0
1772893795.025,23,4235.385,4447.692,4158.974,4183.59,4198.974,0.0
1772893795.0329,24,4226.667,4422.564,4151.282,4164.615,4188.205,0.0
1772893795.0407,25,4237.436,4376.41,4148.718,4160.513,4191.282,0.0
1772893795.0487,26,4246.154,4406.667,4157.949,4179.487,4202.564,0.0
1772893795.0565,27,4230.256,4446.667,4145.128,4169.744,4182.051,0.0
1772893795.0644,28,4215.897,4421.538,4129.744,4150.256,4175.385,0.0
1772893795.0723,29,4234.359,4384.615,4127.692,4170.769,4208.718,0.0
1772893795.0801,30,4250.256,4408.718,4162.051,4183.59,4211.795,0.0
1772893795.088,31,4234.872,4453.333,4183.59,4168.205,4191.795,0.0
1772893795.0958,32,4220.0,4442.051,4166.667,4164.103,4190.256,0.0
1772893795.1038,33,4226.667,4388.718,4179.487,4167.692,4189.231,0.0
1772893795.1116,34,4241.026,4378.974,4184.103,4168.718,4191.282,0.0
1772893795.1195,35,4235.897,4389.231,4138.974,4167.179,4198.462,0.0
1772893795.1273,36,4228.205,4384.615,4099.487,4158.462,4189.744,0.0
1772893795.1352,37,4227.692,4408.718,4126.667,4153.333,4181.538,0.0
1772893795.1431,38,4221.538,4424.103,4178.974,4157.436,4183.59,0.0
1772893795.1509,39,4217.436,4403.59,4137.436,4158.462,4176.923,0.0
1772893795.1589,40,4214.872,4385.128,4082.051,4149.231,4170.256,0.0
1772893795.1667,41,4216.41,4383.077,4116.41,4151.282,4186.667,0.0
1772893795.1746,42,4228.205,4393.846,4175.897,4162.564,4201.026,0.0
1772893795.1824,43,4236.923,4420.0,4177.949,4162.564,4205.641,0.0
1772893795.1903,44,4240.513,4412.821,4109.231,4165.641,4215.385,0.0
1772893795.1982,45,4237.436,4379.487,4068.205,4158.462,4206.667,0.0
1772893795.2061,46,4233.846,4406.154,4116.923,4144.103,4200.0,0.0
1772893795.2139,47,4236.923,4438.974,4175.385,4148.205,4203.59,0.0
1772893795.2218,48,4236.923,4416.41,4167.179,4153.333,4189.744,0.0
1772893795.2296,49,4232.821,4386.667,4117.949,4150.769,4189.744,0.0
1772893795.2375,50,4229.231,4388.205,4079.487,4154.872,4209.231,0.0
1772893795.2454,51,4227.692,4394.872,4102.051,4152.821,4199.487,0.0
1772893795.2532,52,4236.923,4387.179,4154.359,4148.205,4187.179,0.0
1772893795.2612,53,4243.59,4389.744,4174.359,4148.205,4196.923,0.0
1772893795.269,54,4236.41,4405.128,4118.974,4146.667,4202.051,0.0
1772893795.2768,55,4226.667,4384.103,4074.359,4148.718,4203.59,0.0
1772893795.2847,56,4229.231,4359.487,4129.231,4154.872,4200.513,0.0
1772893795.2925,57,4244.615,4396.41,4160.0,4161.538,4199.487,0.0
1772893795.3004,58,4245.641,4413.846,4130.769,4164.615,4202.051,0.0
1772893795.3083,59,4239.487,4378.974,4122.564,4170.256,4205.128,0.0
1772893795.3162,60,4242.564,4375.385,4125.641,4179.487,4210.256,0.0
1772893795.3241,61,4235.385,4388.205,4138.974,4167.692,4205.128,0.0
1772893795.3319,62,4231.282,4396.41,4147.179,4153.333,4202.051,0.0
1772893795.3398,63,4226.667,4407.692,4147.179,4146.154,4191.795,0.0
1772893795.3476,64,4214.359,4390.256,4150.769,4135.897,4168.205,450.0
1772893795.3555,65,4214.872,4374.359,4143.59,4140.513,4163.59,450.0
1772893795.3634,66,4232.821,4402.564,4135.897,4161.538,4192.308,16196.0
1772893795.3713,67,4245.641,4394.359,4151.795,4171.795,4214.359,450.0
1772893795.3792,68,4238.462,4359.487,4155.897,4158.974,4198.974,316.0
1772893795.387,69,4231.282,4404.615,4148.205,4157.949,4194.359,450.0
1772893795.3948,70,4228.205,4444.103,4140.0,4168.718,4203.077,5.0
1772893795.4027,71,4217.949,4402.051,4135.897,4161.026,4195.897,450.0
1772893795.4106,72,4219.487,4374.872,4145.641,4157.436,4201.026,450.0
1772893795.4185,73,4231.282,4396.41,4145.641,4168.205,4214.359,16143.0
1772893795.4263,74,4230.769,4420.513,4151.795,4165.641,4203.077,450.0
1772893795.4342,75,4227.692,4411.282,4174.359,4151.282,4189.231,16255.0
1772893795.442,76,4231.795,4377.436,4172.308,4147.692,4194.359,450.0
1772893795.4499,77,4237.436,4365.641,4157.949,4158.462,4193.846,450.0
1772893795.4578,78,4237.949,4397.436,4157.436,4167.692,4190.256,450.0
1772893795.4656,79,4230.769,4429.231,4167.179,4160.513,4200.0,16255.0
1772893795.4736,80,4227.179,4402.564,4153.846,4147.692,4202.564,450.0
1772893795.4814,81,4221.538,4342.564,4146.667,4139.487,4181.026,450.0
1772893795.4893,82,4214.872,4363.077,4156.923,4143.59,4173.846,450.0
1772893795.4971,83,4228.205,4427.179,4136.41,4156.923,4188.718,16255.0
1772893795.505,84,4250.769,4391.282,4130.769,4158.974,4191.795,450.0
1772893795.5129,85,4257.949,4348.718,4142.564,4155.897,4196.41,450.0
1772893795.5208,86,4244.615,4404.103,4140.513,4155.897,4198.462,450.0
1772893795.5286,87,4235.897,4414.359,4140.0,4156.923,4188.205,16255.0
1772893795.5364,88,4236.923,4344.615,4119.487,4154.872,4186.667,450.0
1772893795.5443,89,4231.795,4354.872,4127.179,4143.077,4192.308,450.0
1772893795.5522,90,4227.692,4429.744,4159.487,4143.59,4197.949,450.0
1772893795.56,91,4232.821,4434.359,4155.385,4160.513,4194.872,16255.0
1772893795.5679,92,4241.026,4383.59,4150.256,4163.077,4188.718,450.0
1772893795.5758,93,4247.179,4356.41,4160.513,4154.872,4195.897,450.0
1772893795.5837,94,4246.154,4385.128,4164.615,4156.41,4210.769,450.0
1772893795.5915,95,4251.282,4414.872,4155.385,4167.179,4220.0,16255.0
1772893795.5994,96,4256.923,4388.718,4155.385,4172.308,4220.513,450.0
1772893795.6072,97,4248.205,4384.615,4165.128,4164.103,4216.41,450.0
1772893795.6151,98,4241.538,4426.667,4146.667,4160.513,4213.846,450.0
1772893795.623,99,4242.051,4407.692,4116.41,4163.077,4212.308,16255.0
1772893795.6309,100,4252.821,4367.179,4094.872,4170.769,4224.103,450.0
1772893795.6387,101,4264.103,4381.026,4108.205,4171.282,4227.692,450.0
1772893795.6466,102,4249.744,4399.487,4144.103,4158.974,4205.128,450.0
1772893795.6545,103,4232.821,4410.769,4102.564,4160.0,4200.513,16255.0
1772893795.6623,104,4236.41,4392.821,4064.103,4160.513,4208.718,450.0
1772893795.6702,105,4254.359,4365.641,4109.231,4154.359,4202.564,450.0
1772893795.6781,106,4260.0,4397.436,4142.564,4162.051,4204.103,450.0
1772893795.686,107,4238.462,4410.256,4141.538,4161.538,4206.667,16255.0
1772893795.6938,108,4223.077,4354.872,4115.385,4154.872,4200.513,450.0
1772893795.7017,109,4231.795,4354.872,4104.103,4165.641,4198.974,450.0
1772893795.7095,110,4235.385,4409.744,4126.154,4177.949,4195.897,450.0
1772893795.7174,111,4224.103,4395.897,4140.513,4175.897,4188.205,16255.0
1772893795.7252,112,4222.051,4381.538,4138.462,4167.179,4188.718,450.0
1772893795.7332,113,4243.077,4426.667,4141.026,4171.282,4205.641,450.0
1772893795.741,114,4247.692,4428.718,4142.051,4179.487,4222.051,450.0
1772893795.7489,115,4223.59,4389.744,4130.769,4169.231,4214.872,16255.0
1772893795.7567,116,4218.974,4386.154,4127.692,4157.436,4195.385,450.0
1772893795.7646,117,4224.103,4382.564,4138.974,4157.949,4184.103,450.0
1772893795.7724,118,4217.436,4369.744,4141.026,4154.872,4188.205,450.0
1772893795.7804,119,4227.179,4376.41,4138.462,4154.872,4197.949,16255.0
1772893795.7883,120,4239.487,4373.846,4145.128,4165.641,4202.051,450.0
1772893795.7961,121,4222.051,4369.231,4158.974,4155.897,4189.231,450.0
1772893795.8039,122,4208.205,4391.795,4154.359,4139.487,4174.872,450.0
1772893795.8118,123,4231.795,4409.744,4146.667,4162.051,4190.769,16255.0
1772893795.8197,124,4248.718,4388.205,4150.256,4178.462,4204.615,450.0
1772893795.8275,125,4231.795,4360.513,4159.487,4155.897,4190.769,450.0
1772893795.8355,126,4222.564,4383.59,4171.795,4152.821,4191.795,450.0
1772893795.8433,127,4240.513,4403.077,4166.667,4168.718,4204.615,234.0
1772893795.8512,0,4251.282,4364.615,4158.462,4165.128,4195.897,450.0
1772893795.859,1,4236.41,4358.462,4163.077,4155.385,4184.615,450.0
1772893795.8669,2,4220.0,4402.051,4160.513,4155.897,4189.744,16144.0
1772893795.8747,3,4232.821,4378.462,4161.538,4174.872,4204.615,450.0
1772893795.8826,4,4251.795,4337.436,4153.846,4189.231,4215.385,201.0
1772893795.8905,5,4246.667,4383.59,4146.154,4176.41,4210.769,450.0
1772893795.8984,6,4236.923,4421.026,4158.462,4170.256,4201.538,0.0
1772893795.9062,7,4231.795,4395.897,4162.051,4177.436,4197.436,450.0
1772893795.914,8,4237.949,4387.692,4152.308,4179.487,4204.103,450.0
1772893795.9219,9,4248.718,4405.128,4138.974,4172.821,4202.051,16099.0
1772893795.9298,10,4242.051,4408.205,4145.641,4167.179,4196.923,450.0
1772893795.9377,11,4237.436,4395.897,4152.308,4170.256,4205.641,16287.0
1772893795.9456,12,4242.564,4386.154,4147.692,4165.128,4198.974,450.0
1772893795.9534,13,4246.154,4382.051,4136.41,4161.538,4193.333,450.0
1772893795.9613,14,4243.59,4381.538,4129.231,4169.231,4205.128,450.0
1772893795.9691,15,4246.667,4399.487,4167.179,4165.641,4208.205,16287.0
1772893795.977,16,4264.103,4403.077,4170.769,4157.949,4207.179,0.0
1772893795.9849,17,4265.641,4372.308,4130.256,4165.128,4213.333,0.0
1772893795.9928,18,4252.821,4377.436,4121.538,4171.282,4215.385,0.0
1772893796.0007,19,4253.333,4415.385,4131.282,4157.949,4207.179,0.0
1772893796.0085,20,4255.385,4411.795,4171.282,4148.718,4201.026,0.0
1772893796.0163,21,4251.282,4393.846,4175.385,4161.026,4201.026,0.0
1772893796.0242,22,4251.282,4389.231,4143.59,4164.615,4198.462,0.0
1772893796.0321,23,4256.923,4373.333,4151.282,4148.205,4191.795,0.0
1772893796.04,24,4252.308,4362.051,4154.872,4136.41,4190.769,0.0
1772893796.0479,25,4241.026,4373.846,4125.128,4147.692,4198.462,0.0
1772893796.0557,26,4249.231,4401.026,4100.0,4168.718,4209.231,0.0
1772893796.0635,27,4248.718,4407.692,4134.359,4165.641,4213.333,0.0
1772893796.0714,28,4228.205,4387.692,4168.718,4149.744,4203.59,0.0
1772893796.0793,29,4237.436,4392.821,4127.179,4156.923,4198.974,0.0
1772893796.0871,30,4265.128,4415.385,4092.308,4163.59,4208.718,0.0
1772893796.0951,31,4266.154,4414.359,4117.949,4150.769,4224.615,0.0
1772893796.1029,32,4254.872,4388.718,4168.718,4143.59,4225.641,0.0
1772893796.1108,33,4253.846,4367.179,4179.487,4135.385,4204.103,0.0
1772893796.1187,34,4250.256,4376.41,4110.769,4123.077,4191.282,0.0
1772893796.1265,35,4241.538,4411.282,4081.026,4122.564,4188.718,0.0
1772893796.1344,36,4247.179,4412.308,4123.077,4133.333,4185.641,0.0
1772893796.1422,37,4252.821,4373.333,4146.667,4143.077,4189.744,0.0
1772893796.1501,38,4247.692,4381.538,4136.923,4143.077,4205.128,0.0
1772893796.158,39,4248.205,4412.308,4105.641,4142.051,4210.769,0.0
1772893796.1658,40,4248.718,4381.538,4102.051,4136.923,4185.641,0.0
1772893796.1737,41,4237.949,4348.718,4130.256,4128.205,4168.718,0.0
1772893796.1816,42,4227.692,4383.077,4139.487,4127.179,4178.462,0.0
1772893796.1894,43,4236.923,4419.487,4135.897,4134.872,4192.821,0.0
1772893796.1973,44,4249.744,4395.897,4138.462,4136.923,4195.385,0.0
1772893796.2052,45,4242.051,4377.949,4135.385,4138.462,4181.026,0.0
1772893796.213,46,4235.385,4393.333,4134.872,4156.923,4177.949,0.0
1772893796.2209,47,4238.974,4383.59,4150.256,4158.974,4190.769,0.0
1772893796.2287,48,4233.333,4380.0,4152.308,4143.59,4202.051,0.0
1772893796.2366,49,4227.692,4408.205,4148.718,4151.282,4202.051,0.0
1772893796.2445,50,4237.436,4414.359,4152.821,4156.923,4190.769,0.0
1772893796.2524,51,4240.513,4404.103,4141.026,4144.615,4186.154,0.0
1772893796.2603,52,4225.641,4409.744,4140.0,4145.128,4188.205,0.0
1772893796.2681,53,4213.333,4394.872,4152.308,4145.641,4186.667,0.0
1772893796.276,54,4226.154,4385.641,4154.359,4142.564,4183.59,0.0
1772893796.2838,55,4239.487,4417.436,4148.205,4145.128,4178.462,0.0
1772893796.2917,56,4228.205,4425.641,4151.282,4132.821,4163.077,0.0
1772893796.2995,57,4223.077,4396.923,4170.256,4126.154,4162.564,0.0
1772893796.3075,58,4226.154,4387.692,4165.128,4141.026,4185.128,0.0
1772893796.3153,59,4228.718,4383.077,4150.769,4147.692,4200.0,0.0
1772893796.3232,60,4241.026,4386.667,4157.436,4150.256,4208.205,0.0
1772893796.331,61,4249.231,4428.718,4161.538,4158.974,4215.897,0.0
1772893796.3389,62,4252.821,4446.154,4160.513,4164.615,4221.026,0.0
1772893796.3467,63,4250.256,4391.282,4152.308,4160.513,4213.333,0.0
1772893796.3547,64,4246.154,4363.077,4151.282,4157.436,4203.59,450.0
1772893796.3625,65,4261.026,4413.846,4158.462,4160.0,4208.205,450.0
1772893796.3704,66,4267.692,4453.333,4155.385,4160.513,4209.231,16164.0
1772893796.3782,67,4255.385,4442.564,4151.795,4163.077,4214.872,450.0
1772893796.3861,68,4256.41,4403.077,4133.846,4165.641,4225.128,317.0
1772893796.394,69,4256.41,4376.41,4127.692,4157.436,4213.333,450.0
1772893796.4018,70,4243.59,4409.744,4147.179,4156.923,4198.462,0.0
1772893796.4098,71,4245.641,4444.103,4161.026,4162.051,4200.513,450.0
1772893796.4176,72,4261.026,4425.128,4137.949,4162.051,4209.231,450.0
1772893796.4255,73,4254.359,4406.154,4119.487,4155.897,4205.128,16130.0
1772893796.4333,74,4239.487,4429.231,4155.897,4143.077,4193.846,450.0
1772893796.4412,75,4240.0,4425.128,4172.308,4140.513,4189.231,16251.0
1772893796.449,76,4240.0,4372.821,4145.128,4153.333,4183.077,450.0
1772893796.4569,77,4237.436,4361.538,4120.513,4151.795,4178.974,450.0
1772893796.4648,78,4230.256,4411.795,4131.282,4129.744,4179.487,450.0
1772893796.4727,79,4230.769,4448.205,4183.59,4127.692,4180.0,16251.0
1772893796.4805,80,4256.923,4435.385,4173.846,4158.462,4189.231,450.0
1772893796.4884,81,4264.615,4405.641,4115.897,4169.231,4192.821,450.0
1772893796.4962,82,4237.949,4407.692,4109.231,4154.872,4191.282,450.0
1772893796.5041,83,4236.923,4422.564,4138.462,4160.513,4207.692,16251.0
1772893796.512,84,4254.872,4404.103,4166.667,4168.205,4217.436,450.0
1772893796.5199,85,4245.641,4401.538,4158.462,4158.974,4211.795,450.0
1772893796.5277,86,4240.0,4440.513,4125.128,4161.538,4215.897,450.0
1772893796.5356,87,4254.872,4425.641,4107.179,4166.154,4208.718,16251.0
1772893796.5434,88,4254.359,4381.026,4112.821,4152.821,4194.359,450.0
1772893796.5513,89,4242.051,4403.59,4126.667,4148.205,4206.154,450.0
1772893796.5592,90,4246.154,4435.385,4112.821,4165.641,4219.487,450.0
1772893796.5671,91,4246.667,4410.256,4118.974,4168.205,4207.179,16251.0
1772893796.575,92,4231.795,4392.821,4135.385,4153.333,4193.846,450.0
1772893796.5828,93,4227.179,4405.128,4095.897,4155.385,4200.0,450.0
1772893796.5907,94,4228.718,4403.59,4076.41,4166.154,4206.154,450.0
1772893796.5985,95,4227.179,4402.564,4130.256,4163.077,4205.128,16251.0
1772893796.6064,96,4238.462,4414.359,4181.026,4154.359,4201.538,450.0
1772893796.6143,97,4258.462,4391.282,4159.487,4157.949,4208.205,450.0
1772893796.6222,98,4267.179,4373.846,4095.385,4172.308,4231.795,450.0
1772893796.63,99,4257.949,4426.667,4104.103,4174.359,4237.436,16251.0
1772893796.6379,100,4250.256,4446.667,4145.641,4165.128,4225.128,450.0
1772893796.6457,101,4253.333,4383.077,4143.077,4167.179,4230.256,450.0
1772893796.6536,102,4250.769,4385.641,4125.128,4172.821,4240.0,450.0
1772893796.6614,103,4249.744,4448.718,4116.923,4170.769,4235.897,16251.0
1772893796.6694,104,4246.667,4441.538,4120.513,4159.487,4221.026,450.0
1772893796.6772,105,4232.821,4414.359,4129.231,4144.615,4207.692,450.0
1772893796.6851,106,4227.692,4425.641,4128.718,4143.59,4192.821,450.0
1772893796.6929,107,4227.692,4413.846,4133.846,4146.667,4184.615,16251.0
1772893796.7008,108,4225.128,4378.974,4142.564,4147.179,4197.949,450.0
1772893796.7087,109,4225.128,4380.513,4138.974,4146.154,4205.641,450.0
1772893796.7165,110,4229.744,4418.462,4142.051,4146.667,4195.385,450.0
1772893796.7245,111,4241.026,4433.333,4135.385,4158.974,4197.949,16251.0
1772893796.7323,112,4250.769,4414.872,4123.077,4169.744,4215.897,450.0
1772893796.7402,113,4243.077,4404.615,4135.385,4164.615,4214.359,450.0
1772893796.748,114,4227.692,4406.667,4135.897,4153.846,4196.923,450.0
1772893796.7559,115,4233.333,4427.692,4128.205,4148.718,4204.103,16251.0
1772893796.7637,116,4247.692,4448.205,4136.923,4153.846,4220.0,450.0
1772893796.7717,117,4244.103,4417.949,4138.974,4163.59,4214.359,450.0
1772893796.7795,118,4249.231,4403.077,4135.897,4169.744,4214.872,450.0
1772893796.7873,119,4268.205,4436.923,4133.846,4175.897,4228.718,16251.0
1772893796.7952,120,4254.872,4427.179,4142.564,4178.462,4220.513,450.0
1772893796.803,121,4228.205,4413.846,4162.051,4169.231,4209.231,450.0
1772893796.8109,122,4237.436,4442.051,4155.385,4161.538,4212.308,450.0
1772893796.8188,123,4260.0,4420.0,4136.923,4162.051,4207.692,16251.0
1772893796.8267,124,4253.846,4396.41,4148.718,4162.051,4200.0,450.0
1772893796.8346,125,4234.359,4444.615,4166.667,4159.487,4200.0,450.0
1772893796.8424,126,4242.564,4463.59,4166.154,4166.667,4203.59,450.0
1772893796.8502,127,4249.231,4423.077,4163.59,4173.333,4203.077,234.0
1772893796.8581,0,4235.385,4394.359,4167.179,4170.256,4197.436,450.0
1772893796.866,1,4233.846,4402.564,4161.026,4167.179,4188.718,450.0
1772893796.8739,2,4246.667,4417.949,4158.974,4158.462,4184.103,16268.0
1772893796.8818,3,4253.846,4407.179,4166.667,4149.744,4198.974,450.0
1772893796.8896,4,4248.718,4389.231,4162.051,4148.718,4209.231,16334.0
1772893796.8975,5,4238.462,4400.0,4148.718,4155.897,4204.615,450.0
1772893796.9053,6,4233.333,4418.974,4129.231,4160.513,4205.128,6.0
1772893796.9132,7,4244.103,4429.231,4131.795,4157.436,4204.615,450.0
1772893796.921,8,4266.667,4436.923,4146.154,4165.641,4208.205,450.0
1772893796.929,9,4267.692,4426.154,4139.487,4175.897,4219.487,16242.0
1772893796.9368,10,4242.051,4416.41,4151.282,4165.641,4222.564,450.0
1772893796.9447,11,4242.051,4413.846,4167.692,4154.872,4220.0,16156.0
1772893796.9525,12,4257.949,4416.923,4177.436,4156.923,4222.564,450.0
1772893796.9604,13,4252.821,4425.641,4180.0,4158.974,4219.487,450.0
1772893796.9682,14,4235.897,4421.538,4172.821,4157.949,4210.769,450.0
1772893796.9761,15,4227.692,4428.205,4181.026,4154.872,4210.769,16156.0
1772893796.9841,16,4240.0,4432.308,4176.923,4150.769,4214.359,0.0
1772893796.992,17,4253.333,4402.564,4146.667,4147.692,4208.718,0.0
1772893796.9998,18,4249.744,4395.385,4135.897,4147.179,4205.128,0.0
1772893797.0076,19,4248.205,4423.077,4150.256,4155.385,4221.026,0.0
1772893797.0155,20,4255.897,4440.513,4160.513,4161.538,4233.333,0.0
1772893797.0233,21,4260.513,4445.641,4152.308,4166.667,4238.974,0.0
1772893797.0313,22,4262.564,4437.436,4138.462,4174.872,4249.744,0.0
1772893797.0391,23,4261.026,4417.436,4133.333,4172.821,4237.949,0.0
1772893797.047,24,4243.077,4408.718,4145.641,4163.077,4212.308,0.0
1772893797.0548,25,4234.872,4409.231,4152.308,4152.821,4211.795,0.0
1772893797.0627,26,4254.359,4421.538,4109.744,4148.205,4233.846,0.0
1772893797.0705,27,4261.538,4432.821,4089.744,4150.769,4232.821,0.0
1772893797.0784,28,4244.615,4423.59,4119.487,4154.359,4213.333,0.0
1772893797.0863,29,4250.256,4405.641,4108.205,4165.641,4213.846,0.0
1772893797.0942,30,4265.641,4398.462,4088.718,4172.821,4232.308,0.0
1772893797.102,31,4255.897,4425.641,4112.308,4170.769,4242.564,0.0
1772893797.1099,32,4245.128,4437.949,4138.974,4168.718,4230.256,0.0
1772893797.1177,33,4252.821,4392.308,4132.308,4165.641,4216.923,0.0
1772893797.1256,34,4250.769,4389.744,4086.667,4167.692,4220.513,0.0
1772893797.1335,35,4233.333,4422.051,4089.231,4163.59,4217.436,0.0
1772893797.1414,36,4237.949,4385.128,4122.051,4155.385,4213.333,0.0
1772893797.1493,37,4238.846,4385.897,4123.462,4157.692,4215.192,0.0
1772893797.1571,38,4239.744,4386.667,4124.872,4160.0,4217.051,0.0
1772893797.1649,39,4240.641,4387.436,4126.282,4162.308,4218.91,0.0
1772893797.1727,40,4241.538,4388.205,4127.692,4164.615,4220.769,0.0
1772893797.1805,41,4242.436,4388.974,4129.103,4166.923,4222.628,0.0
1772893797.1884,42,4243.333,4389.744,4130.513,4169.231,4224.487,0.0
1772893797.1962,43,4244.231,4390.513,4131.923,4171.538,4226.346,0.0
1772893797.204,44,4245.128,4391.282,4133.333,4173.846,4228.205,0.0
1772893797.2118,45,4244.103,4395.385,4128.205,4165.641,4227.692,0.0
1772893797.2195,46,4240.513,4407.179,4127.692,4166.667,4214.872,0.0
1772893797.2273,47,4231.282,4431.282,4143.59,4167.692,4205.128,0.0
1772893797.235,48,4239.487,4423.077,4144.103,4167.692,4204.103,0.0
1772893797.2429,49,4243.59,4389.231,4132.821,4174.872,4206.667,0.0
1772893797.2506,50,4232.821,4402.564,4127.692,4176.923,4222.051,0.0
1772893797.2584,51,4239.487,4436.41,4133.333,4171.795,4234.872,0.0
1772893797.2661,52,4254.359,4431.282,4148.205,4170.256,4228.205,0.0
1772893797.2739,53,4248.718,4409.744,4148.718,4168.205,4220.513,0.0
1772893797.2816,54,4242.051,4404.615,4142.051,4165.641,4225.641,0.0
1772893797.2894,55,4249.231,4412.821,4143.077,4170.769,4229.231,0.0
1772893797.2972,56,4256.923,4415.385,4148.718,4177.436,4230.769,0.0
1772893797.305,57,4258.974,4395.385,4158.462,4178.462,4238.974,0.0
1772893797.3127,58,4257.436,4401.026,4153.333,4182.564,4243.59,0.0
1772893797.3205,59,4246.154,4435.385,4143.077,4187.179,4238.974,0.0
1772893797.3282,60,4233.333,4424.103,4148.205,4174.872,4218.462,0.0
1772893797.336,61,4237.949,4406.667,4156.41,4168.205,4208.205,0.0
1772893797.3437,62,4249.744,4429.231,4164.103,4182.051,4225.641,0.0
1772893797.3516,63,4238.462,4436.41,4164.103,4179.487,4230.256,0.0
1772893797.3593,64,4231.795,4415.385,4154.359,4169.744,4215.385,450.0
1772893797.3671,65,4244.615,4401.538,4152.308,4178.974,4201.538,450.0
1772893797.3748,66,4236.923,4416.41,4167.179,4177.436,4191.282,16244.0
1772893797.3825,67,4232.821,4442.564,4156.41,4169.744,4202.564,450.0
1772893797.3903,68,4262.051,4418.974,4136.923,4177.436,4230.769,16263.0
1772893797.3981,69,4274.872,4386.667,4149.744,4183.077,4236.41,450.0
1772893797.4059,70,4255.385,4417.436,4154.872,4178.974,4221.538,9.0
1772893797.4136,71,4247.179,4430.256,4153.333,4173.846,4221.026,450.0
1772893797.4214,72,4258.974,4406.667,4144.103,4176.923,4236.923,450.0
1772893797.4291,73,4257.949,4412.308,4128.718,4184.615,4241.026,16227.0
1772893797.4369,74,4251.282,4424.103,4138.974,4180.0,4231.282,450.0
1772893797.4446,75,4256.41,4432.308,4150.256,4172.308,4232.308,16196.0
1772893797.4525,76,4252.308,4441.538,4158.462,4169.231,4235.897,450.0
1772893797.4602,77,4244.615,4414.359,4148.205,4165.641,4225.128,450.0
1772893797.468,78,4256.923,4388.718,4121.538,4171.282,4215.897,450.0
1772893797.4757,79,4269.744,4426.154,4130.769,4183.077,4222.051,16196.0
1772893797.4835,80,4260.0,4448.718,4158.974,4178.462,4234.872,450.0
1772893797.4912,81,4245.641,4405.128,4167.692,4169.744,4233.333,450.0
1772893797.499,82,4246.154,4386.154,4143.077,4176.923,4225.641,450.0
1772893797.5068,83,4248.718,4409.231,4110.769,4180.513,4220.0,16196.0
1772893797.5145,84,4247.179,4408.205,4119.487,4174.359,4213.333,450.0
1772893797.5223,85,4259.487,4412.821,4148.718,4181.026,4220.0,450.0
1772893797.53,86,4271.282,4445.128,4162.564,4182.051,4226.154,450.0
1772893797.5378,87,4255.385,4440.513,4141.026,4166.154,4222.564,16196.0
1772893797.5455,88,4240.0,4412.308,4106.154,4167.179,4221.026,450.0
1772893797.5533,89,4248.718,4420.0,4113.333,4177.436,4214.872,450.0
1772893797.5612,90,4262.051,4428.718,4142.564,4175.385,4218.462,450.0
1772893797.5689,91,4254.872,4410.769,4147.692,4171.282,4229.744,16196.0
1772893797.5767,92,4240.0,4414.359,4132.308,4172.308,4224.615,450.0
1772893797.5844,93,4238.974,4413.846,4118.462,4176.923,4220.0,450.0
1772893797.5922,94,4237.949,4383.59,4122.564,4176.41,4225.641,450.0
1772893797.5999,95,4242.051,4395.897,4129.744,4172.821,4222.564,16196.0
1772893797.6077,96,4254.872,4443.077,4135.897,4170.769,4212.821,450.0
1772893797.6155,97,4252.308,4428.205,4134.872,4168.205,4213.846,450.0
1772893797.6232,98,4241.538,4392.308,4115.385,4165.128,4217.949,450.0
1772893797.631,99,4235.385,4412.308,4106.667,4166.667,4209.744,16196.0
1772893797.6387,100,4228.205,4416.923,4125.128,4172.308,4204.615,450.0
1772893797.6465,101,4226.667,4377.436,4140.513,4173.333,4217.949,450.0
1772893797.6543,102,4228.205,4375.385,4140.513,4165.128,4214.872,450.0
1772893797.6621,103,4229.231,4412.308,4124.103,4165.641,4198.462,16196.0
1772893797.6698,104,4230.256,4409.744,4120.513,4174.872,4206.154,450.0
1772893797.6776,105,4228.718,4384.615,4136.41,4172.308,4213.846,450.0
1772893797.6854,106,4233.333,4396.41,4130.256,4168.718,4200.0,450.0
1772893797.6932,107,4252.308,4391.795,4122.051,4174.872,4197.436,16196.0
1772893797.7009,108,4262.051,4374.359,4137.436,4175.897,4211.795,450.0
1772893797.7087,109,4249.744,4390.256,4143.59,4168.205,4225.128,450.0
1772893797.7165,110,4245.641,4412.821,4140.513,4168.205,4242.051,450.0
1772893797.7243,111,4253.333,4402.051,4138.462,4172.821,4236.41,16196.0
1772893797.732,112,4254.872,4370.769,4137.436,4171.795,4201.538,450.0
1772893797.7398,113,4253.846,4371.795,4145.641,4171.795,4199.487,450.0
1772893797.7475,114,4242.564,4398.462,4148.718,4166.667,4214.872,450.0
1772893797.7553,115,4236.41,4403.077,4146.667,4160.0,4205.641,16196.0
1772893797.763,116,4262.564,4367.692,4151.282,4175.385,4221.026,450.0
1772893797.7708,117,4291.795,4356.923,4143.077,4183.59,4253.333,450.0
1772893797.7785,118,4306.154,4406.667,4143.59,4173.846,4262.051,450.0
1772893797.7863,119,4354.359,4414.872,4165.128,4175.385,4293.846,16196.0
1772893797.794,120,4435.897,4363.077,4173.846,4181.538,4352.308,450.0
1772893797.8018,121,4528.718,4385.641,4160.513,4190.769,4421.026,450.0
1772893797.8095,122,4640.0,4453.333,4144.615,4198.462,4513.846,450.0
1772893797.8173,123,4760.0,4428.205,4155.897,4193.333,4596.41,16196.0
1772893797.8251,124,4871.282,4392.308,4174.359,4188.205,4644.103,450.0
1772893797.8329,125,4944.615,4435.897,4174.359,4185.641,4689.231,450.0
1772893797.8406,126,4973.846,4452.821,4164.615,4182.051,4717.949,450.0
1772893797.8484,127,5011.795,4415.897,4155.897,4186.154,4726.154,234.0
1772893797.8561,0,5083.59,4447.179,4158.974,4195.385,4765.641,450.0
1772893797.8639,1,5115.385,4508.205,4155.897,4190.769,4780.0,450.0
1772893797.8716,2,5111.795,4500.513,4158.974,4178.462,4744.103,16226.0
1772893797.8795,3,5148.205,4465.641,4148.205,4175.385,4748.718,450.0
1772893797.8872,4,5153.846,4433.846,4115.897,4169.744,4767.179,16316.0
1772893797.895,5,5118.974,4422.051,4127.692,4169.744,4753.846,450.0
1772893797.9027,6,5149.744,4437.949,4155.897,4190.256,4745.128,6.0
1772893797.9105,7,5155.385,4438.974,4172.308,4193.333,4724.103,450.0
1772893797.9182,8,5028.718,4421.538,4163.59,4178.974,4650.256,450.0
1772893797.9261,9,4936.923,4445.128,4131.282,4187.692,4565.128,16219.0
1772893797.9338,10,4963.59,4492.308,4121.538,4198.462,4563.59,450.0
1772893797.9415,11,4936.41,4475.897,4145.128,4177.949,4634.872,16176.0
1772893797.9493,12,4788.718,4430.769,4137.436,4155.385,4613.846,450.0
1772893797.957,13,4648.718,4416.923,4120.0,4162.564,4458.974,450.0
1772893797.9648,14,4572.821,4428.718,4151.282,4174.359,4349.744,450.0
1772893797.9725,15,4504.103,4439.487,4172.308,4165.641,4332.308,16176.0
1772893797.9804,16,4424.103,4409.744,4120.513,4148.205,4289.744,0.0
1772893797.9881,17,4342.051,4387.692,4068.205,4135.385,4227.692,0.0
1772893797.9959,18,4293.333,4443.59,4092.821,4138.974,4216.41,0.0
1772893798.0036,19,4296.923,4462.051,4148.205,4154.359,4238.974,0.0
1772893798.0114,20,4301.026,4398.462,4190.769,4158.462,4250.256,0.0
1772893798.0191,21,4297.436,4405.128,4174.359,4148.205,4259.487,0.0
1772893798.0269,22,4360.0,4455.897,4174.872,4135.385,4302.051,0.0
1772893798.0347,23,4541.026,4425.128,4185.641,4131.282,4407.179,0.0
1772893798.0425,24,4750.769,4383.077,4111.282,4138.462,4546.154,0.0
1772893798.0502,25,4864.615,4384.103,4064.103,4142.051,4620.513,0.0
1772893798.058,26,4908.205,4401.538,4132.821,4141.538,4651.795,0.0
1772893798.0657,27,4932.821,4427.179,4170.769,4152.308,4689.231,0.0
1772893798.0735,28,4911.795,4432.308,4116.923,4165.641,4659.487,0.0
1772893798.0812,29,4870.256,4410.256,4098.462,4167.692,4592.308,0.0
1772893798.0891,30,4831.282,4410.256,4152.821,4156.41,4592.308,0.0
1772893798.0968,31,4743.59,4422.051,4133.846,4154.872,4583.077,0.0
1772893798.1045,32,4629.744,4391.795,4083.59,4158.462,4495.385,0.0
1772893798.1123,33,4543.077,4372.821,4117.949,4155.385,4436.41,0.0
1772893798.12,34,4455.385,4406.667,4160.513,4158.974,4398.462,0.0
1772893798.1278,35,4365.128,4433.333,4141.026,4161.026,4316.41,0.0
1772893798.1356,36,4301.538,4422.051,4105.128,4154.872,4263.077,0.0
1772893798.1434,37,4244.103,4400.0,4084.103,4147.179,4238.462,0.0
1772893798.1511,38,4200.0,4410.256,4110.769,4142.564,4205.641,0.0
1772893798.1589,39,4180.0,4423.59,4128.718,4142.564,4194.359,0.0
1772893798.1667,40,4143.59,4378.462,4118.462,4141.538,4176.41,0.0
1772893798.1744,41,4118.462,4335.385,4127.692,4141.026,4137.436,0.0
1772893798.1821,42,4115.897,4377.436,4151.282,4143.59,4122.564,0.0
1772893798.19,43,4087.692,4414.359,4158.974,4135.897,4110.769,0.0
1772893798.1977,44,4093.333,4379.487,4145.128,4140.0,4114.359,0.0
1772893798.2055,45,4153.846,4371.282,4136.41,4160.513,4168.718,0.0
1772893798.2132,46,4204.103,4411.282,4138.462,4157.949,4223.077,0.0
1772893798.221,47,4301.026,4424.615,4134.872,4145.128,4284.615,0.0
1772893798.2287,48,4506.154,4398.974,4131.282,4150.769,4410.769,0.0
1772893798.2365,49,4686.667,4362.564,4145.641,4158.462,4540.0,0.0
1772893798.2443,50,4695.897,4360.0,4146.667,4159.487,4557.436,0.0
1772893798.252,51,4611.795,4408.205,4134.359,4162.051,4471.282,0.0
1772893798.2598,52,4547.179,4423.077,4148.718,4158.462,4394.872,0.0
1772893798.2675,53,4485.641,4373.846,4168.718,4152.308,4385.641,0.0
1772893798.2753,54,4411.282,4355.897,4167.179,4163.077,4391.795,0.0
1772893798.2831,55,4341.026,4370.256,4149.744,4166.667,4332.308,0.0
1772893798.2908,56,4279.487,4383.077,4144.103,4155.897,4252.308,0.0
1772893798.2986,57,4228.205,4409.744,4152.821,4155.385,4220.513,0.0
1772893798.3064,58,4170.769,4407.179,4153.333,4149.231,4186.154,0.0
1772893798.3142,59,4113.846,4361.538,4159.487,4135.385,4138.974,0.0
1772893798.3219,60,4091.282,4349.231,4163.59,4135.897,4121.026,0.0
1772893798.3296,61,4082.051,4372.308,4145.128,4133.333,4111.282,0.0
1772893798.3374,62,4053.333,4364.615,4136.41,4126.667,4091.795,0.0
1772893798.3453,63,4031.282,4355.897,4153.846,4124.615,4084.103,0.0
1772893798.353,64,4035.897,4362.051,4169.231,4121.538,4085.128,450.0
1772893798.3607,65,4057.436,4354.872,4151.795,4125.128,4088.718,450.0
1772893798.3685,66,4081.026,4349.231,4132.308,4129.744,4108.718,16219.0
1772893798.3762,67,4133.333,4362.051,4114.872,4126.154,4166.667,450.0
1772893798.3839,68,4285.128,4370.769,4138.974,4125.128,4282.564,16217.0
1772893798.3917,69,4516.923,4356.923,4175.385,4130.769,4425.128,450.0
1772893798.3996,70,4678.462,4353.846,4133.846,4131.795,4522.564,11.0
1772893798.4073,71,4730.256,4378.462,4110.256,4128.205,4557.949,450.0
1772893798.4151,72,4745.128,4404.103,4160.513,4134.359,4571.795,450.0
1772893798.4228,73,4704.615,4389.744,4185.128,4146.154,4533.846,16213.0
1772893798.4305,74,4637.436,4356.923,4176.923,4141.538,4455.385,450.0
1772893798.4383,75,4606.667,4366.154,4172.308,4131.795,4424.103,16198.0
1772893798.4461,76,4529.744,4391.795,4159.487,4134.872,4403.077,450.0
1772893798.4539,77,4403.077,4385.641,4123.077,4142.051,4338.462,450.0
1772893798.4617,78,4330.256,4369.744,4126.154,4131.795,4270.769,450.0
1772893798.4694,79,4271.282,4346.154,4166.154,4109.744,4220.513,16198.0
1772893798.4772,80,4187.179,4322.051,4164.103,4113.333,4177.949,450.0
1772893798.4849,81,4140.513,4341.538,4125.128,4132.308,4148.718,450.0
1772893798.4926,82,4126.154,4380.0,4118.974,4134.872,4133.846,450.0
1772893798.5004,83,4099.487,4375.385,4130.256,4123.077,4119.487,16198.0
1772893798.5082,84,4059.487,4334.359,4130.256,4114.359,4095.897,450.0
1772893798.516,85,4031.795,4314.872,4113.333,4119.487,4073.333,450.0
1772893798.5237,86,4033.846,4337.949,4134.359,4123.59,4075.897,450.0
1772893798.5315,87,4026.154,4366.667,4155.385,4118.462,4081.026,16198.0
1772893798.5392,88,3990.256,4356.923,4108.718,4116.41,4058.462,450.0
1772893798.547,89,3996.923,4344.103,4074.359,4120.513,4052.308,450.0
1772893798.5548,90,4075.385,4364.615,4121.026,4129.231,4111.282,450.0
1772893798.5626,91,4178.462,4354.359,4192.308,4132.821,4203.59,16198.0
1772893798.5703,92,4350.769,4349.744,4194.359,4140.0,4329.744,450.0
1772893798.5781,93,4583.077,4368.205,4124.615,4158.974,4479.487,450.0
1772893798.5858,94,4711.795,4367.179,4106.667,4163.59,4556.923,450.0
1772893798.5936,95,4711.282,4389.231,4131.282,4150.769,4560.0,16198.0
1772893798.6013,96,4670.769,4395.385,4142.051,4146.154,4535.385,450.0
1772893798.6092,97,4609.744,4341.026,4144.615,4147.692,4461.538,450.0
1772893798.6169,98,4546.667,4341.026,4117.949,4141.026,4392.821,450.0
1772893798.6247,99,4491.282,4389.231,4096.923,4140.0,4388.718,16198.0
1772893798.6324,100,4416.923,4349.744,4115.897,4156.41,4366.154,450.0
1772893798.6402,101,4333.333,4321.026,4142.564,4163.077,4293.333,450.0
1772893798.6479,102,4267.179,4395.897,4141.538,4146.154,4242.051,450.0
1772893798.6557,103,4202.564,4404.615,4132.308,4130.769,4204.103,16198.0
1772893798.6635,104,4134.359,4326.667,4140.0,4133.846,4141.538,450.0
1772893798.6712,105,4092.821,4330.256,4148.718,4141.538,4100.513,450.0
1772893798.679,106,4073.846,4393.333,4136.41,4137.436,4096.41,450.0
1772893798.6867,107,4045.641,4377.436,4128.205,4128.718,4092.821,16198.0
1772893798.6945,108,4016.41,4342.564,4150.256,4134.359,4084.103,450.0
1772893798.7022,109,4005.128,4358.974,4161.538,4138.974,4070.256,450.0
1772893798.71,110,4005.641,4356.41,4149.231,4136.923,4049.231,450.0
1772893798.7178,111,3995.897,4347.692,4148.718,4142.051,4042.051,16198.0
1772893798.7256,112,4001.538,4375.897,4151.795,4148.205,4066.667,450.0
1772893798.7333,113,4075.385,4371.282,4154.872,4153.846,4132.308,450.0
1772893798.7411,114,4233.846,4349.231,4162.564,4153.846,4234.872,450.0
1772893798.7488,115,4455.897,4376.923,4167.692,4161.538,4378.974,16198.0
1772893798.7566,116,4641.026,4389.744,4161.026,4176.41,4508.205,450.0
1772893798.7644,117,4706.154,4354.359,4145.128,4161.538,4544.615,450.0
1772893798.7722,118,4721.538,4367.179,4157.949,4145.128,4558.462,450.0
1772893798.7799,119,4749.744,4409.744,4174.359,4160.513,4582.564,16198.0
1772893798.7877,120,4725.128,4382.051,4166.667,4172.308,4528.718,450.0
1772893798.7954,121,4668.205,4348.718,4162.564,4169.231,4456.41,450.0
1772893798.8032,122,4648.718,4377.436,4162.564,4162.051,4475.897,450.0
1772893798.8109,123,4560.513,4386.154,4155.385,4156.923,4456.41,16198.0
1772893798.8188,124,4395.897,4341.538,4141.026,4156.923,4309.231,450.0
1772893798.8265,125,4327.179,4342.564,4147.692,4147.692,4229.231,450.0
1772893798.8342,126,4331.795,4400.0,4144.615,4137.436,4266.667,450.0
1772893798.8419,127,4243.077,4404.103,4125.128,4145.128,4218.974,234.0
1772893798.8497,0,4134.359,4361.538,4132.821,4151.795,4109.744,450.0
1772893798.8574,1,4121.538,4344.615,4143.077,4142.564,4108.205,450.0
1772893798.8653,2,4109.744,4376.923,4144.103,4125.641,4138.974,16222.0
1772893798.8732,3,4050.769,4407.692,4148.718,4126.667,4088.205,450.0
1772893798.8811,4,3998.462,4377.436,4140.513,4141.538,4022.051,16213.0
1772893798.8889,5,3988.205,4350.769,4124.615,4136.41,4010.769,450.0
1772893798.8968,6,4008.718,4395.897,4126.154,4125.641,4036.923,13.0
1772893798.9046,7,3992.821,4430.256,4167.179,4131.795,4051.282,450.0
1772893798.9124,8,3964.103,4403.077,4153.846,4138.462,4056.41,450.0
1772893798.9202,9,4002.051,4383.59,4083.59,4134.359,4081.538,16204.0
1772893798.928,10,4113.333,4405.641,4088.718,4131.282,4146.667,450.0
1772893798.9358,11,4287.692,4411.795,4123.077,4138.974,4265.128,16185.0
1772893798.9435,12,4473.846,4396.923,4144.103,4145.641,4397.949,450.0
1772893798.9513,13,4587.179,4401.538,4144.615,4143.077,4476.41,450.0
1772893798.959,14,4617.949,4409.744,4090.256,4146.154,4470.256,450.0
1772893798.9669,15,4603.59,4403.59,4072.308,4168.205,4434.872,16185.0
1772893798.9748,16,4558.974,4382.051,4134.359,4174.359,4404.615,0.0
1772893798.9827,17,4489.744,4351.795,4216.41,4143.077,4364.103,0.0
1772893798.9905,18,4437.436,4350.769,4190.769,4125.128,4347.179,0.0
1772893798.9983,19,4392.821,4390.769,4103.077,4131.795,4339.487,0.0
1772893799.006,20,4314.872,4416.923,4102.051,4131.795,4281.026,0.0
1772893799.0138,21,4234.359,4397.949,4162.564,4137.436,4215.897,0.0
1772893799.0215,22,4163.59,4376.41,4171.795,4141.026,4162.051,0.0
1772893799.0295,23,4080.0,4368.718,4120.513,4126.154,4086.667,0.0
1772893799.0373,24,4021.026,4364.615,4082.564,4108.205,4046.667,0.0
1772893799.0452,25,4012.821,4386.154,4123.59,4097.949,4072.821,0.0
1772893799.053,26,3994.872,4405.128,4133.333,4106.667,4081.026,0.0
1772893799.0609,27,3942.051,4391.795,4103.077,4113.846,4036.41,0.0
1772893799.0687,28,3923.077,4376.923,4116.923,4102.051,4007.179,0.0
1772893799.0766,29,3936.41,4360.0,4130.769,4092.308,4016.923,0.0
1772893799.0845,30,3921.026,4368.205,4120.0,4092.821,4021.538,0.0
1772893799.0924,31,3907.179,4411.282,4123.077,4113.333,4015.897,0.0
1772893799.1002,32,3913.333,4392.821,4138.974,4132.821,4017.436,0.0
1772893799.1079,33,3890.256,4345.128,4146.154,4112.308,4008.205,0.0
1772893799.1157,34,3875.385,4386.154,4140.513,4095.385,3997.436,0.0
1772893799.1234,35,3941.538,4411.795,4141.538,4112.308,4027.692,0.0
1772893799.1313,36,4070.256,4364.615,4146.667,4122.564,4110.769,0.0
1772893799.139,37,4249.231,4376.41,4136.41,4128.205,4245.128,0.0
1772893799.1468,38,4466.667,4414.872,4126.667,4147.179,4392.308,0.0
1772893799.1545,39,4629.744,4384.615,4138.462,4153.846,4496.923,0.0
1772893799.1623,40,4654.359,4353.333,4141.538,4143.077,4512.308,0.0
1772893799.17,41,4626.667,4367.692,4140.0,4149.744,4454.359,0.0
1772893799.1778,42,4626.154,4384.103,4150.769,4164.615,4429.744,0.0
1772893799.1856,43,4598.974,4394.872,4154.872,4158.462,4449.231,0.0
1772893799.1934,44,4497.949,4392.308,4153.846,4163.59,4400.0,0.0
1772893799.2011,45,4381.538,4362.564,4148.205,4181.026,4297.436,0.0
1772893799.209,46,4369.231,4364.103,4149.744,4177.436,4288.205,0.0
1772893799.2168,47,4382.564,4408.205,4168.718,4166.667,4333.333,0.0
1772893799.2247,48,4256.41,4422.564,4165.128,4166.667,4244.103,0.0
1772893799.2325,49,4112.821,4403.077,4146.667,4163.077,4094.872,0.0
1772893799.2405,50,4112.308,4411.795,4147.692,4142.564,4095.897,0.0
1772893799.2483,51,4117.949,4427.179,4169.744,4134.872,4164.615,0.0
1772893799.2562,52,4033.846,4396.923,4170.769,4144.615,4107.179,0.0
1772893799.264,53,3988.718,4383.077,4144.615,4145.128,4034.359,0.0
1772893799.2718,54,3974.872,4409.231,4134.359,4148.718,4048.718,0.0
1772893799.2795,55,3926.667,4406.667,4144.615,4158.974,4025.128,0.0
1772893799.2872,56,3914.359,4378.462,4152.821,4144.615,3990.769,0.0
1772893799.2951,57,3931.795,4380.513,4129.744,4126.154,4021.538,0.0
1772893799.3028,58,3916.923,4399.487,4134.872,4140.513,4038.974,0.0
1772893799.3106,59,3935.385,4402.564,4168.205,4154.359,4049.744,0.0
1772893799.3183,60,4003.077,4380.513,4154.359,4133.846,4080.0,0.0
1772893799.3261,61,4110.769,4364.615,4171.282,4130.256,4148.718,0.0
1772893799.3338,62,4308.718,4396.923,4193.333,4167.179,4297.949,0.0
1772893799.3417,63,4497.436,4427.692,4182.564,4176.923,4419.487,0.0
1772893799.3494,64,4598.974,4417.436,4160.513,4155.385,4452.821,450.0
1772893799.3572,65,4691.795,4381.026,4114.872,4149.744,4494.359,450.0
1772893799.3649,66,4773.333,4367.692,4102.051,4151.282,4527.179,16224.0
1772893799.3727,67,4823.59,4380.0,4138.462,4155.897,4524.615,450.0
1772893799.3804,68,4889.231,4340.513,4130.769,4171.795,4552.821,16213.0
1772893799.3883,69,4904.615,4318.974,4091.795,4180.0,4534.359,450.0
1772893799.3962,70,4850.769,4366.667,4125.128,4182.051,4449.231,5.0
1772893799.4041,71,4821.538,4371.795,4161.026,4166.667,4414.359,450.0
1772893799.4119,72,4791.795,4331.795,4129.744,4151.795,4386.154,450.0
1772893799.4198,73,4728.205,4333.846,4100.0,4172.308,4338.462,16197.0
1772893799.4276,74,4649.231,4373.846,4101.538,4187.692,4364.615,450.0
1772893799.4355,75,4572.308,4386.154,4127.692,4173.333,4381.538,16199.0
1772893799.4433,76,4502.051,4353.333,4195.385,4155.897,4293.846,450.0
1772893799.4513,77,4400.513,4356.923,4190.256,4155.897,4232.821,450.0
1772893799.4591,78,4263.59,4413.846,4096.41,4158.974,4201.026,450.0
1772893799.467,79,4203.59,4411.795,4104.615,4143.077,4144.103,16199.0
1772893799.4748,80,4166.667,4346.154,4170.769,4135.897,4101.538,450.0
1772893799.4825,81,4033.333,4334.359,4164.615,4147.692,4025.641,450.0
1772893799.4903,82,3995.385,4395.385,4108.205,4144.103,4032.821,450.0
1772893799.4981,83,4078.462,4423.59,4070.256,4126.154,4169.231,16199.0
1772893799.5059,84,4044.615,4380.0,4106.667,4127.179,4191.282,450.0
1772893799.5136,85,3951.282,4348.718,4128.205,4134.872,4087.179,450.0
1772893799.5214,86,3938.462,4389.744,4123.59,4123.59,4083.59,450.0
1772893799.5291,87,3949.231,4443.59,4134.872,4121.026,4146.667,16199.0
1772893799.537,88,3956.41,4426.667,4132.308,4122.564,4147.692,450.0
1772893799.5448,89,3982.051,4360.513,4137.949,4101.026,4127.179,450.0
1772893799.5528,90,4088.205,4366.154,4139.487,4095.897,4202.051,450.0
1772893799.5606,91,4315.385,4429.744,4114.359,4115.897,4378.974,16199.0
1772893799.5685,92,4489.744,4421.026,4108.718,4117.949,4478.974,450.0
1772893799.5763,93,4535.897,4378.974,4139.487,4115.385,4479.487,450.0
1772893799.5842,94,4598.462,4387.179,4154.872,4131.795,4512.308,450.0
1772893799.592,95,4717.436,4371.795,4148.205,4145.641,4580.0,16199.0
1772893799.5999,96,4763.077,4320.0,4148.718,4146.667,4580.0,450.0
1772893799.6078,97,4751.795,4338.462,4149.231,4154.872,4550.256,450.0
1772893799.6156,98,4773.846,4366.154,4151.282,4161.026,4556.41,450.0
1772893799.6233,99,4740.0,4316.923,4154.359,4153.333,4467.692,16199.0
1772893799.6312,100,4694.872,4300.513,4149.231,4155.897,4378.462,450.0
1772893799.6391,101,4696.923,4326.667,4148.718,4158.974,4403.077,450.0
1772893799.6469,102,4550.769,4327.179,4164.103,4155.897,4381.538,450.0
1772893799.6547,103,4396.41,4341.538,4173.333,4169.231,4344.103,16199.0
1772893799.6625,104,4480.513,4366.667,4152.821,4171.795,4392.308,450.0
1772893799.6703,105,4491.282,4354.359,4143.59,4155.897,4352.821,450.0
1772893799.678,106,4239.487,4348.205,4145.641,4147.692,4202.051,450.0
1772893799.6858,107,4109.744,4366.154,4149.231,4134.872,4204.103,16199.0
1772893799.6935,108,4152.821,4332.308,4175.385,4120.513,4272.308,450.0
1772893799.7013,109,4053.333,4303.59,4170.256,4120.0,4198.462,450.0
1772893799.7091,110,3918.974,4383.077,4144.615,4119.487,4127.179,450.0
1772893799.717,111,3925.128,4435.897,4147.179,4104.103,4157.436,16199.0
1772893799.7248,112,3948.205,4382.564,4148.205,4088.205,4198.974,450.0
1772893799.7326,113,3900.513,4376.923,4135.897,4095.385,4169.744,450.0
1772893799.7403,114,3849.231,4441.026,4133.846,4102.051,4129.744,450.0
1772893799.7481,115,3843.077,4446.667,4145.641,4079.487,4116.923,16199.0
1772893799.7558,116,3832.308,4418.974,4152.821,4062.564,4108.718,450.0
1772893799.7637,117,3821.026,4422.564,4158.462,4074.359,4115.385,450.0
1772893799.7714,118,3856.923,4421.538,4139.487,4084.615,4142.564,450.0
1772893799.7792,119,3941.538,4420.513,4136.41,4080.513,4203.59,16199.0
1772893799.7869,120,4067.179,4424.615,4168.718,4075.897,4307.179,450.0
1772893799.7948,121,4235.385,4406.154,4124.615,4081.538,4425.128,450.0
1772893799.8026,122,4369.231,4383.59,4090.256,4078.462,4493.846,450.0
1772893799.8104,123,4425.128,4378.974,4128.718,4066.154,4498.974,16199.0
1772893799.8182,124,4480.513,4383.59,4160.0,4075.897,4534.872,450.0
1772893799.8261,125,4507.179,4353.333,4189.744,4095.897,4563.59,450.0
1772893799.8339,126,4442.564,4331.795,4172.308,4101.538,4483.59,450.0
1772893799.8417,127,4382.564,4366.154,4100.0,4106.154,4427.179,234.0
1772893799.8496,0,4365.128,4376.41,4107.692,4122.564,4450.769,450.0
1772893799.8574,1,4257.436,4343.077,4203.077,4124.615,4380.0,450.0
1772893799.8653,2,4113.333,4353.333,4222.051,4101.538,4267.692,16201.0
1772893799.873,3,4090.769,4388.205,4139.487,4086.667,4300.0,450.0
1772893799.8808,4,4068.718,4356.923,4059.487,4092.308,4311.795,16083.0
1772893799.8885,5,3950.256,4313.846,4075.385,4104.103,4176.923,450.0
1772893799.8963,6,3874.872,4326.154,4182.564,4111.282,4110.769,3.0
1772893799.904,7,3868.718,4349.231,4221.538,4101.538,4150.256,450.0
1772893799.9118,8,3851.282,4353.846,4160.0,4096.41,4154.872,450.0
1772893799.9196,9,3820.513,4350.256,4121.538,4098.462,4117.949,16178.0
1772893799.9274,10,3795.385,4345.641,4135.385,4098.974,4097.949,450.0
1772893799.9351,11,3785.128,4347.692,4129.231,4102.564,4096.923,16235.0
1772893799.9429,12,3786.667,4368.718,4115.897,4102.564,4093.846,450.0
1772893799.9506,13,3780.0,4383.59,4117.949,4102.051,4086.154,450.0
1772893799.9584,14,3772.308,4388.718,4125.128,4107.179,4083.077,450.0
1772893799.9661,15,3802.051,4392.821,4145.128,4104.103,4116.923,16235.0
1772893799.9741,16,3876.41,4351.795,4123.59,4093.846,4171.282,0.0
1772893799.9819,17,4004.615,4313.333,4108.718,4091.795,4238.462,0.0
1772893799.9897,18,4201.538,4365.641,4126.667,4109.744,4369.744,0.0
1772893799.9975,19,4395.385,4408.205,4125.641,4135.897,4506.667,0.0
1772893800.0054,20,4455.897,4373.846,4143.077,4139.487,4515.385,0.0
1772893800.0132,21,4413.846,4368.205,4145.128,4128.205,4411.795,0.0
1772893800.0212,22,4454.359,4393.846,4109.231,4132.821,4427.179,0.0
1772893800.029,23,4495.385,4374.872,4107.692,4145.641,4467.692,0.0
1772893800.0368,24,4388.718,4373.846,4139.487,4151.795,4351.282,0.0
1772893800.0447,25,4309.231,4408.205,4148.205,4151.282,4324.615,0.0
1772893800.0525,26,4343.077,4406.667,4147.179,4153.846,4437.949,0.0
1772893800.0603,27,4277.949,4397.949,4147.179,4158.462,4397.949,0.0
1772893800.068,28,4140.513,4395.897,4140.0,4150.769,4280.0,0.0
1772893800.0759,29,4100.513,4374.872,4132.821,4135.385,4294.872,0.0
1772893800.0836,30,4037.949,4384.103,4131.795,4129.231,4232.308,0.0
1772893800.0914,31,3929.231,4416.923,4142.564,4141.538,4090.769,0.0
1772893800.0991,32,3901.026,4395.897,4152.821,4139.487,4109.231,0.0
1772893800.1069,33,3901.026,4372.821,4143.59,4110.256,4169.744,0.0
1772893800.1146,34,3855.897,4400.513,4146.154,4098.462,4147.692,0.0
1772893800.1225,35,3795.385,4406.154,4158.974,4101.026,4073.846,0.0
1772893800.1304,36,3783.077,4380.0,4157.949,4099.487,4063.59,0.0
1772893800.1382,37,3806.154,4384.103,4155.385,4101.026,4097.436,0.0
1772893800.1459,38,3793.846,4415.897,4164.103,4091.282,4075.385,0.0
1772893800.1538,39,3745.641,4438.462,4176.923,4079.487,4034.872,0.0
1772893800.1616,40,3747.179,4420.513,4174.872,4096.923,4041.538,0.0
1772893800.1695,41,3785.128,4394.359,4173.846,4122.564,4078.462,0.0
1772893800.1773,42,3799.487,4411.795,4174.359,4116.41,4087.179,0.0
1772893800.1853,43,3872.308,4427.692,4173.846,4106.154,4125.128,0.0
1772893800.1931,44,4052.821,4391.282,4172.308,4117.436,4233.846,0.0
1772893800.201,45,4244.615,4375.385,4157.436,4124.615,4354.359,0.0
1772893800.2088,46,4382.564,4424.615,4154.359,4129.231,4447.179,0.0
1772893800.2167,47,4458.974,4454.872,4154.359,4137.949,4471.282,0.0
1772893800.2245,48,4473.846,4415.897,4142.051,4140.513,4447.692,0.0
1772893800.2325,49,4469.744,4391.282,4125.641,4141.026,4452.821,0.0
1772893800.2403,50,4484.615,4413.333,4139.487,4143.59,4458.974,0.0
1772893800.248,51,4453.846,4418.974,4162.051,4145.641,4396.41,0.0
1772893800.2558,52,4370.256,4410.769,4121.538,4149.231,4341.538,0.0
1772893800.2635,53,4278.462,4401.026,4100.0,4151.282,4301.538,0.0
1772893800.2713,54,4186.667,4392.821,4162.564,4153.846,4224.615,0.0
1772893800.279,55,4138.974,4404.615,4185.641,4150.256,4219.487,0.0
1772893800.2869,56,4125.128,4414.359,4143.59,4135.385,4262.564,0.0
1772893800.2946,57,4055.897,4407.179,4121.026,4124.615,4197.436,0.0
1772893800.3025,58,3944.103,4402.051,4150.256,4121.538,4092.308,0.0
1772893800.3103,59,3878.462,4396.923,4143.59,4130.256,4048.718,0.0
1772893800.3182,60,3843.59,4387.692,4108.718,4145.128,4008.718,0.0
1772893800.326,61,3807.692,4390.256,4126.154,4140.0,3992.821,0.0
1772893800.3339,62,3800.513,4407.692,4128.718,4123.077,4035.385,0.0
1772893800.3418,63,3794.359,4420.513,4095.385,4122.564,4037.949,0.0
1772893800.3496,64,3776.923,4402.564,4117.949,4129.231,4008.205,450.0
1772893800.3573,65,3766.154,4378.462,4155.897,4121.026,4001.026,450.0
1772893800.3652,66,3772.308,4408.718,4141.538,4112.308,4007.692,16190.0
1772893800.373,67,3770.769,4437.949,4125.641,4122.051,4007.179,450.0
1772893800.3808,68,3752.308,4384.615,4117.436,4124.615,3996.923,16136.0
1772893800.3886,69,3787.179,4340.0,4094.359,4118.462,4017.949,450.0
1772893800.3965,70,3897.436,4389.231,4129.231,4127.692,4101.026,1.0
1772893800.4043,71,4039.487,4434.872,4179.487,4136.923,4210.256,450.0
1772893800.412,72,4202.564,4397.949,4122.564,4140.513,4309.744,450.0
1772893800.4198,73,4350.769,4375.897,4050.769,4146.154,4395.385,16175.0
1772893800.4275,74,4430.256,4413.846,4108.205,4149.744,4447.179,450.0
1772893800.4354,75,4409.744,4415.897,4178.462,4157.949,4411.282,16232.0
1772893800.4433,76,4366.154,4383.59,4182.564,4162.564,4357.436,450.0
1772893800.4512,77,4415.385,4381.026,4155.385,4162.564,4396.923,450.0
1772893800.459,78,4388.718,4394.359,4116.923,4165.128,4380.513,450.0
1772893800.4668,79,4214.359,4392.308,4116.41,4155.897,4257.949,16232.0
1772893800.4745,80,4170.256,4371.282,4141.538,4146.154,4252.821,450.0
1772893800.4823,81,4224.615,4361.026,4152.308,4151.282,4306.154,450.0
1772893800.49,82,4116.923,4395.897,4126.667,4155.897,4217.949,450.0
1772893800.4979,83,3985.128,4412.308,4089.231,4145.641,4125.641,16232.0
1772893800.5056,84,3953.846,4365.128,4110.256,4136.923,4103.077,450.0
1772893800.5134,85,3892.821,4348.205,4129.231,4146.667,4040.513,450.0
1772893800.5211,86,3829.744,4378.462,4108.205,4156.923,3997.436,450.0
1772893800.529,87,3835.897,4392.308,4109.744,4150.256,4007.179,16232.0
1772893800.5368,88,3852.308,4378.974,4120.0,4143.59,4001.026,450.0
1772893800.5447,89,3826.667,4352.821,4113.846,4149.231,3976.923,450.0
1772893800.5526,90,3758.462,4355.385,4121.026,4151.282,3941.538,450.0
1772893800.5604,91,3742.051,4392.821,4134.359,4148.718,3937.949,16232.0
1772893800.5681,92,3793.846,4395.385,4128.718,4150.256,3979.487,450.0
1772893800.576,93,3793.846,4358.974,4132.308,4148.718,3982.564,450.0
1772893800.5838,94,3764.103,4362.564,4148.718,4154.359,3957.949,450.0
1772893800.5917,95,3818.462,4390.256,4150.256,4181.538,4010.256,16232.0
1772893800.5996,96,3889.744,4379.487,4137.949,4197.949,4077.436,450.0
1772893800.6073,97,3947.179,4341.538,4127.692,4183.077,4112.821,450.0
1772893800.6151,98,4082.051,4327.179,4147.179,4166.154,4193.333,450.0
1772893800.6228,99,4241.538,4351.282,4163.59,4155.385,4284.615,16232.0
1772893800.6306,100,4356.41,4348.205,4151.795,4159.487,4343.077,450.0
1772893800.6383,101,4424.615,4315.385,4144.103,4175.385,4356.923,450.0
1772893800.6461,102,4446.667,4333.846,4162.051,4174.872,4352.308,450.0
1772893800.6539,103,4410.769,4353.333,4170.256,4166.154,4341.538,16232.0
1772893800.6617,104,4356.41,4313.333,4148.718,4167.692,4258.462,450.0
1772893800.6694,105,4336.41,4324.615,4145.641,4171.795,4204.615,450.0
1772893800.6772,106,4322.564,4398.462,4154.359,4164.103,4267.179,450.0
1772893800.6849,107,4282.051,4406.154,4147.692,4161.538,4287.692,16232.0
1772893800.6927,108,4204.103,4365.641,4153.846,4175.897,4193.333,450.0
1772893800.7004,109,4122.564,4361.026,4161.538,4180.513,4121.026,450.0
1772893800.7083,110,4078.974,4391.282,4148.205,4172.821,4103.59,450.0
1772893800.716,111,4044.615,4394.359,4138.462,4166.154,4082.051,16232.0
1772893800.7239,112,3965.128,4353.333,4163.077,4154.872,4058.974,450.0
1772893800.7317,113,3882.051,4331.282,4167.692,4153.333,4001.538,450.0
1772893800.7396,114,3884.103,4357.436,4158.974,4157.436,3955.897,450.0
1772893800.7474,115,3900.513,4385.128,4162.051,4147.179,3981.026,16232.0
1772893800.7554,116,3870.256,4380.513,4114.872,4145.128,3994.359,450.0
1772893800.7632,117,3837.436,4349.231,4094.359,4154.872,3954.872,450.0
1772893800.7711,118,3844.615,4330.256,4145.128,4148.718,3935.385,450.0
1772893800.7789,119,3862.564,4360.513,4181.026,4143.59,3958.974,16232.0
1772893800.7868,120,3843.59,4394.872,4184.615,4154.872,3965.641,450.0
1772893800.7946,121,3831.795,4360.0,4139.487,4164.103,3960.513,450.0
1772893800.8023,122,3843.077,4325.641,4101.538,4156.923,3965.128,450.0
1772893800.8102,123,3841.026,4373.846,4118.462,4156.923,3970.256,16232.0
1772893800.8179,124,3841.538,4391.795,4153.846,4167.179,3988.718,450.0
1772893800.8257,125,3897.436,4336.923,4154.359,4165.128,4008.205,450.0
1772893800.8334,126,4006.667,4353.333,4110.769,4155.897,4056.41,450.0
1772893800.8412,127,4136.923,4406.154,4068.718,4151.282,4160.513,234.0
1772893800.8489,0,4294.359,4376.41,4115.897,4151.795,4263.59,450.0
1772893800.8568,1,4450.256,4341.026,4201.026,4160.513,4326.667,450.0
1772893800.8647,2,4528.205,4390.769,4170.256,4170.769,4373.846,16221.0
1772893800.8725,3,4568.205,4449.744,4097.949,4172.308,4413.846,450.0
1772893800.8802,4,4627.692,4414.872,4122.051,4163.077,4405.641,16274.0
1772893800.8881,5,4679.487,4351.795,4143.077,4161.538,4404.615,450.0
1772893800.8959,6,4676.41,4362.564,4094.872,4172.821,4424.103,2.0
1772893800.9038,7,4681.026,4401.538,4092.308,4188.718,4383.59,450.0
1772893800.9116,8,4709.231,4398.462,4130.256,4203.59,4360.0,450.0
1772893800.9196,9,4594.872,4378.974,4098.462,4194.359,4347.179,16205.0
1772893800.9274,10,4440.0,4400.513,4087.179,4164.103,4247.692,450.0
1772893800.9353,11,4454.872,4418.462,4129.744,4153.333,4171.282,16193.0
1772893800.9431,12,4467.179,4389.231,4154.872,4158.462,4168.718,450.0
1772893800.951,13,4339.487,4366.667,4111.282,4158.462,4145.128,450.0
1772893800.9588,14,4235.897,4376.41,4083.077,4159.487,4097.436,450.0
1772893800.9667,15,4204.615,4370.769,4126.667,4157.436,4058.462,16193.0
1772893800.9744,16,4120.0,4347.692,4152.821,4154.872,4000.513,0.0
1772893800.9823,17,4023.59,4348.718,4133.846,4158.974,3955.897,0.0
1772893800.9901,18,4017.436,4376.923,4121.538,4164.103,3954.359,0.0
1772893800.9978,19,4047.692,4390.256,4128.205,4163.59,3968.718,0.0
1772893801.0057,20,4000.0,4373.333,4139.487,4153.333,3976.923,0.0
1772893801.0135,21,3924.103,4354.359,4133.846,4144.103,3943.077,0.0
1772893801.0214,22,3930.769,4373.846,4130.256,4157.949,3922.564,0.0
1772893801.0291,23,3938.462,4401.538,4132.821,4178.462,3941.538,0.0
1772893801.037,24,3898.462,4394.359,4129.231,4171.282,3925.128,0.0
1772893801.0448,25,3923.59,4397.436,4129.744,4148.205,3924.615,0.0
1772893801.0527,26,4031.795,4418.974,4137.436,4143.59,3993.846,0.0
1772893801.0605,27,4171.282,4418.974,4141.538,4153.333,4087.179,0.0
1772893801.0684,28,4339.487,4405.128,4142.564,4165.641,4188.205,0.0
1772893801.0763,29,4485.641,4374.359,4152.821,4178.974,4276.923,0.0
1772893801.0841,30,4570.769,4342.051,4157.436,4185.128,4318.974,0.0
1772893801.0918,31,4673.333,4358.462,4156.41,4194.359,4357.949,0.0
1772893801.0997,32,4777.949,4391.282,4156.41,4206.154,4398.974,0.0
1772893801.1075,33,4806.667,4377.949,4159.487,4194.872,4395.385,0.0
1772893801.1154,34,4830.256,4360.513,4159.487,4181.538,4400.0,0.0
1772893801.1232,35,4854.359,4353.333,4155.897,4175.385,4383.59,0.0
1772893801.1312,36,4818.974,4336.923,4163.077,4163.077,4304.103,0.0
1772893801.139,37,4788.718,4334.872,4158.462,4157.436,4282.051,0.0
1772893801.1469,38,4739.487,4353.846,4149.231,4157.949,4288.718,0.0
1772893801.1547,39,4593.846,4341.538,4155.897,4160.513,4200.0,0.0
1772893801.1624,40,4482.051,4299.487,4162.564,4159.487,4123.077,0.0
1772893801.1702,41,4463.077,4300.0,4166.667,4156.41,4120.0,0.0
1772893801.178,42,4395.385,4342.051,4161.026,4160.0,4078.462,0.0
1772893801.1859,43,4285.128,4374.359,4162.564,4160.513,4023.59,0.0
1772893801.1937,44,4244.103,4371.795,4152.308,4158.974,4027.179,0.0
1772893801.2016,45,4215.897,4357.436,4125.641,4162.564,4013.846,0.0
1772893801.2094,46,4138.974,4386.667,4146.154,4160.513,3969.231,0.0
1772893801.2172,47,4092.821,4408.205,4171.282,4149.744,3947.692,0.0
1772893801.2249,48,4136.923,4397.949,4161.538,4147.179,3972.308,0.0
1772893801.2328,49,4262.564,4420.513,4134.359,4156.923,4061.026,0.0
1772893801.2405,50,4395.897,4446.667,4156.41,4158.974,4162.051,0.0
1772893801.2483,51,4503.077,4422.051,4184.103,4163.077,4230.256,0.0
1772893801.256,52,4601.538,4398.462,4129.231,4171.795,4285.128,0.0
1772893801.2639,53,4658.462,4398.974,4093.846,4180.0,4316.41,0.0
1772893801.2717,54,4696.923,4402.564,4150.256,4194.872,4335.385,0.0
1772893801.2796,55,4766.667,4386.667,4198.974,4196.41,4356.923,0.0
1772893801.2876,56,4835.897,4363.077,4191.282,4184.103,4373.333,0.0
1772893801.2954,57,4874.872,4385.128,4137.949,4182.051,4382.051,0.0
1772893801.3033,58,4920.0,4424.103,4075.897,4181.538,4383.077,0.0
1772893801.3111,59,4973.333,4410.769,4083.59,4180.513,4395.897,0.0
1772893801.319,60,5004.103,4344.103,4169.744,4181.538,4422.051,0.0
1772893801.3268,61,5010.256,4332.308,4186.667,4181.026,4420.513,0.0
1772893801.3348,62,4993.846,4393.846,4110.769,4184.615,4384.615,0.0
1772893801.3426,63,4981.026,4391.282,4053.846,4185.641,4370.256,0.0
1772893801.3505,64,4943.077,4343.59,4087.692,4182.051,4371.282,450.0
1772893801.3583,65,4802.564,4348.205,4170.769,4178.974,4296.923,450.0
1772893801.3662,66,4697.949,4382.564,4194.872,4172.821,4224.103,16193.0
1772893801.374,67,4735.897,4390.256,4142.051,4176.41,4277.949,450.0
1772893801.3819,68,4672.821,4365.128,4120.0,4192.821,4292.308,16122.0
1772893801.3898,69,4445.641,4348.718,4138.462,4200.513,4151.795,450.0
1772893801.3977,70,4306.667,4373.333,4126.667,4187.692,4056.923,3.0
1772893801.4055,71,4271.282,4397.436,4126.667,4162.564,4077.949,450.0
1772893801.4134,72,4212.308,4385.128,4143.59,4158.974,4070.256,450.0
1772893801.4212,73,4144.615,4360.0,4110.769,4173.333,4013.333,16182.0
1772893801.4291,74,4094.359,4351.795,4102.051,4179.487,3980.513,450.0
1772893801.4369,75,4042.564,4371.282,4142.051,4179.487,3958.462,16247.0
1772893801.4449,76,4010.769,4390.256,4168.205,4179.487,3949.744,450.0
1772893801.4528,77,3993.846,4363.077,4133.846,4182.051,3951.282,450.0
1772893801.4606,78,3952.821,4352.821,4103.077,4165.128,3921.026,450.0
1772893801.4685,79,3947.179,4387.179,4125.641,4177.949,3938.462,16247.0
1772893801.4763,80,3953.846,4337.436,4140.513,4200.513,3966.154,450.0
1772893801.4842,81,3905.128,4279.487,4127.179,4174.872,3901.538,450.0
1772893801.492,82,3867.692,4325.128,4121.026,4177.436,3863.59,450.0
1772893801.5,83,3862.051,4334.359,4120.513,4191.282,3888.205,16247.0
1772893801.5078,84,3888.718,4303.59,4128.718,4186.154,3904.615,450.0
1772893801.5157,85,3916.923,4318.974,4131.282,4184.615,3904.103,450.0
1772893801.5235,86,3893.846,4359.487,4128.205,4169.231,3904.615,450.0
1772893801.5314,87,3866.667,4343.077,4123.59,4170.256,3905.128,16247.0
1772893801.5392,88,3851.795,4288.205,4132.308,4177.436,3882.564,450.0
1772893801.5472,89,3838.974,4313.333,4138.974,4165.128,3872.821,450.0
1772893801.555,90,3847.179,4362.051,4142.051,4164.615,3881.026,450.0
1772893801.5629,91,3868.205,4350.769,4141.026,4178.462,3873.333,16247.0
1772893801.5707,92,3875.385,4329.231,4138.462,4181.538,3877.436,450.0
1772893801.5786,93,3858.462,4321.538,4145.641,4171.795,3884.615,450.0
1772893801.5864,94,3850.769,4327.179,4149.744,4173.333,3872.821,450.0
1772893801.5943,95,3859.487,4344.103,4150.769,4187.179,3871.282,16247.0
1772893801.6022,96,3840.0,4347.692,4150.256,4180.0,3895.897,450.0
1772893801.6101,97,3835.897,4327.692,4150.256,4167.692,3910.256,450.0
1772893801.618,98,3875.897,4334.872,4156.923,4175.385,3888.718,450.0
1772893801.6258,99,3883.077,4372.821,4154.872,4183.077,3875.897,16247.0
1772893801.6337,100,3862.051,4372.308,4152.821,4189.231,3893.333,450.0
1772893801.6415,101,3870.256,4341.026,4149.231,4190.769,3901.026,450.0
1772893801.6494,102,3864.615,4361.538,4148.718,4190.256,3890.256,450.0
1772893801.6573,103,3845.128,4403.59,4158.462,4200.0,3890.769,16247.0
1772893801.6652,104,3875.385,4376.41,4151.795,4202.564,3908.205,450.0
1772893801.673,105,3913.846,4330.769,4147.179,4194.359,3923.59,450.0
1772893801.6809,106,3895.897,4363.077,4146.667,4195.385,3922.051,450.0
1772893801.6887,107,3877.436,4395.897,4149.744,4201.538,3916.923,16247.0
1772893801.6966,108,3895.385,4363.59,4156.41,4202.051,3932.821,450.0
1772893801.7044,109,3892.821,4369.231,4146.154,4207.179,3951.795,450.0
1772893801.7124,110,3874.359,4411.282,4147.179,4211.282,3934.872,450.0
1772893801.7202,111,3890.769,4386.667,4159.487,4205.641,3910.256,16247.0
1772893801.7281,112,3916.41,4337.949,4161.026,4204.615,3922.051,450.0
1772893801.7359,113,3915.385,4345.128,4133.846,4206.154,3952.821,450.0
1772893801.7438,114,3899.487,4390.256,4121.026,4202.051,3964.615,450.0
1772893801.7516,115,3886.154,4417.949,4152.821,4202.051,3941.026,16247.0
1772893801.7596,116,3889.231,4397.949,4147.692,4206.667,3922.564,450.0
1772893801.7674,117,3914.359,4335.385,4142.564,4206.154,3941.026,450.0
1772893801.7753,118,3933.333,4325.641,4151.282,4209.231,3950.256,450.0
1772893801.7832,119,3917.436,4394.359,4121.026,4217.436,3941.538,16247.0
1772893801.791,120,3899.487,4404.103,4107.179,4216.923,3968.718,450.0
1772893801.7989,121,3937.436,4341.026,4141.538,4213.846,4007.692,450.0
1772893801.8067,122,3962.564,4344.615,4135.897,4208.205,3989.231,450.0
1772893801.8147,123,3921.026,4391.282,4106.154,4203.077,3963.077,16247.0
1772893801.8225,124,3903.59,4363.077,4134.872,4202.051,3962.564,450.0
1772893801.8304,125,3940.0,4343.077,4167.179,4193.846,3957.949,450.0
1772893801.8382,126,3958.974,4401.026,4112.308,4196.923,3976.41,450.0
1772893801.8461,127,3937.436,4398.462,4096.41,4202.564,3987.692,234.0
1772893801.8539,0,3923.077,4345.641,4132.821,4187.179,3967.179,450.0
1772893801.8617,1,3946.154,4371.795,4104.615,4195.897,3973.333,450.0
1772893801.8695,2,3961.026,4411.282,4081.538,4216.41,3988.718,16195.0
1772893801.8774,3,3964.103,4382.564,4127.179,4211.795,3997.949,450.0
1772893801.8852,4,3990.769,4352.308,4124.615,4208.718,4013.333,16098.0
1772893801.8931,5,4006.154,4367.179,4090.769,4205.128,4013.333,450.0
1772893801.9009,6,3985.641,4395.897,4131.282,4203.077,4027.692,4.0
1772893801.9088,7,3968.205,4396.923,4218.462,4210.769,4040.513,450.0
1772893801.9167,8,3977.436,4377.436,4158.462,4210.256,4009.231,450.0
1772893801.9246,9,3987.692,4353.846,4061.538,4203.59,3987.692,16172.0
1772893801.9325,10,3967.692,4355.897,4104.103,4199.487,4000.513,450.0
1772893801.9403,11,3969.231,4386.154,4151.282,4215.897,4020.513,16250.0
1772893801.9482,12,3994.872,4390.256,4118.462,4231.282,4025.128,450.0
1772893801.9561,13,3984.103,4382.051,4108.718,4214.872,4003.077,450.0
1772893801.9639,14,3971.282,4400.0,4126.667,4202.564,3982.051,450.0
1772893801.9718,15,3992.308,4409.744,4141.538,4211.795,3997.949,16250.0
1772893801.9796,16,4005.641,4394.872,4117.949,4212.821,4027.179,0.0
1772893801.9875,17,3990.769,4361.026,4103.077,4202.564,4016.41,0.0
1772893801.9954,18,3990.769,4369.231,4127.179,4210.256,4002.564,0.0
1772893802.0032,19,4022.564,4423.59,4151.282,4236.923,4036.41,0.0
1772893802.0111,20,4034.872,4411.795,4143.59,4240.513,4060.0,0.0
1772893802.0189,21,4017.949,4383.59,4132.821,4226.154,4041.538,0.0
1772893802.0269,22,4003.077,4443.59,4130.769,4217.949,4032.308,0.0
1772893802.0347,23,4003.077,4455.385,4130.769,4217.436,4044.103,0.0
1772893802.0426,24,4010.256,4384.103,4131.282,4220.0,4047.692,0.0
1772893802.0504,25,4013.333,4390.769,4135.385,4205.641,4032.308,0.0
1772893802.0582,26,4028.718,4451.282,4151.795,4198.974,4038.462,0.0
1772893802.0661,27,4042.564,4441.538,4162.564,4213.846,4056.41,0.0
1772893802.0741,28,4022.051,4395.897,4153.333,4211.282,4040.0,0.0
1772893802.0819,29,4008.718,4398.462,4146.154,4208.205,4039.487,0.0
1772893802.0898,30,4030.769,4433.333,4146.154,4225.641,4068.205,0.0
1772893802.0976,31,4061.538,4442.051,4160.513,4240.0,4083.077,0.0
1772893802.1055,32,4058.462,4410.769,4174.872,4233.846,4075.385,0.0
1772893802.1133,33,4034.359,4390.769,4168.718,4213.333,4056.923,0.0
1772893802.1212,34,4046.667,4426.154,4156.923,4207.179,4061.026,0.0
1772893802.1291,35,4063.59,4452.821,4150.769,4220.513,4074.872,0.0
1772893802.137,36,4058.974,4430.769,4162.051,4231.282,4073.846,0.0
1772893802.1448,37,4073.846,4398.974,4171.282,4229.231,4079.487,0.0
1772893802.1527,38,4086.667,4410.769,4172.308,4217.949,4095.897,0.0
1772893802.1605,39,4081.026,4450.769,4166.667,4217.949,4098.462,0.0
1772893802.1684,40,4088.205,4454.359,4158.974,4233.333,4096.923,0.0
1772893802.1763,41,4093.846,4424.103,4152.821,4239.487,4110.769,0.0
1772893802.1842,42,4073.333,4414.359,4131.795,4221.026,4103.077,0.0
1772893802.1921,43,4080.513,4428.205,4140.513,4217.436,4093.846,0.0
1772893802.1999,44,4104.103,4415.897,4168.205,4226.154,4107.692,0.0
1772893802.2078,45,4079.487,4394.359,4168.718,4210.769,4097.436,0.0
1772893802.2156,46,4065.128,4425.128,4154.872,4218.462,4088.205,0.0
1772893802.2235,47,4072.308,4465.128,4137.436,4229.744,4092.308,0.0
1772893802.2314,48,4078.974,4449.744,4127.692,4212.821,4093.846,0.0
1772893802.2393,49,4094.359,4398.462,4145.128,4217.949,4102.051,0.0
1772893802.2471,50,4086.154,4400.513,4173.333,4228.205,4108.205,0.0
1772893802.255,51,4080.513,4446.667,4166.154,4223.59,4110.769,0.0
1772893802.2628,52,4091.795,4445.128,4118.974,4220.513,4094.872,0.0
1772893802.2707,53,4102.051,4438.462,4099.487,4226.667,4100.0,0.0
1772893802.2785,54,4108.718,4461.026,4104.615,4229.744,4129.744,0.0
1772893802.2865,55,4098.462,4447.179,4149.231,4223.077,4114.872,0.0
1772893802.2943,56,4083.077,4408.205,4204.103,4221.026,4085.641,0.0
1772893802.3022,57,4069.231,4416.41,4160.0,4215.897,4091.282,0.0
1772893802.31,58,4073.846,4468.718,4084.103,4214.359,4118.974,0.0
1772893802.3179,59,4112.308,4461.026,4121.538,4227.179,4132.821,0.0
1772893802.3257,60,4133.333,4400.513,4194.359,4223.077,4128.205,0.0
1772893802.3336,61,4113.333,4413.333,4193.333,4210.769,4123.59,0.0
1772893802.3416,62,4120.0,4479.487,4155.385,4229.744,4135.385,0.0
1772893802.3494,63,4146.667,4474.359,4145.128,4245.128,4143.077,0.0
1772893802.3572,64,4129.231,4418.974,4126.154,4232.308,4138.462,450.0
1772893802.3651,65,4108.205,4395.897,4107.692,4229.231,4149.744,450.0
1772893802.373,66,4123.59,4418.974,4107.179,4234.872,4153.846,16210.0
1772893802.3808,67,4141.026,4445.641,4144.615,4231.282,4133.333,450.0
1772893802.3888,68,4145.641,4432.821,4146.667,4225.128,4123.59,16167.0
1772893802.3966,69,4150.769,4415.385,4101.026,4234.359,4149.231,450.0
1772893802.4045,70,4152.821,4446.154,4100.513,4249.744,4171.795,1.0
1772893802.4123,71,4148.718,4476.923,4166.667,4239.487,4155.897,450.0
1772893802.4201,72,4145.641,4438.974,4147.692,4215.897,4141.026,450.0
1772893802.428,73,4142.051,4389.231,4083.077,4213.333,4136.923,16202.0
1772893802.4358,74,4143.077,4420.513,4107.692,4232.821,4138.462,450.0
1772893802.4438,75,4132.821,4469.744,4141.538,4249.744,4144.615,16225.0
1772893802.4517,76,4121.026,4432.821,4134.872,4244.615,4133.846,450.0
1772893802.4595,77,4146.667,4387.692,4126.667,4226.667,4124.103,450.0
1772893802.4674,78,4164.615,4424.615,4111.795,4221.538,4136.41,450.0
1772893802.4752,79,4142.564,4453.333,4119.487,4231.282,4154.872,16225.0
1772893802.4831,80,4144.615,4436.41,4125.128,4239.487,4165.641,450.0
1772893802.4909,81,4163.077,4429.744,4124.103,4225.641,4155.897,450.0
1772893802.4989,82,4166.154,4438.462,4127.692,4217.949,4153.846,450.0
1772893802.5068,83,4176.41,4441.026,4131.795,4237.949,4160.513,16225.0
1772893802.5146,84,4184.615,4432.308,4136.923,4247.692,4143.59,450.0
1772893802.5225,85,4176.923,4418.462,4150.256,4248.718,4147.179,450.0
1772893802.5303,86,4155.385,4411.282,4154.872,4240.513,4170.769,450.0
1772893802.5382,87,4155.897,4422.564,4145.641,4223.077,4157.436,16225.0
1772893802.5461,88,4185.641,4416.41,4142.564,4227.179,4151.795,450.0
1772893802.554,89,4192.308,4394.359,4150.769,4235.385,4180.513,450.0
1772893802.5618,90,4171.795,4416.923,4158.974,4228.205,4174.359,450.0
1772893802.5696,91,4173.333,4458.462,4157.949,4234.872,4148.205,16225.0
1772893802.5775,92,4186.154,4456.41,4149.231,4255.385,4163.077,450.0
1772893802.5854,93,4186.154,4419.487,4140.0,4249.231,4187.179,450.0
1772893802.5932,94,4192.308,4423.59,4134.359,4237.436,4204.103,450.0
1772893802.6012,95,4203.077,4462.564,4138.974,4250.769,4216.923,16225.0
1772893802.609,96,4207.692,4450.256,4137.436,4254.872,4204.103,450.0
1772893802.6169,97,4204.103,4414.359,4146.154,4243.59,4180.513,450.0
1772893802.6247,98,4196.923,4440.513,4172.308,4244.615,4176.923,450.0
1772893802.6326,99,4206.667,4469.744,4167.179,4247.692,4185.128,16225.0
1772893802.6405,100,4217.436,4446.154,4153.333,4236.923,4198.974,450.0
1772893802.6484,101,4202.051,4444.103,4156.41,4235.897,4215.897,450.0
1772893802.6563,102,4184.615,4462.051,4160.0,4242.051,4193.846,450.0
1772893802.6641,103,4204.615,4448.205,4161.538,4241.538,4164.103,16225.0
1772893802.6719,104,4236.41,4414.359,4165.128,4244.615,4196.41,450.0
1772893802.6798,105,4236.41,4408.718,4164.615,4244.615,4238.462,450.0
1772893802.6877,106,4220.513,4442.051,4154.872,4245.128,4225.128,450.0
1772893802.6955,107,4203.59,4435.897,4149.231,4244.615,4195.385,16225.0
1772893802.7035,108,4194.359,4406.667,4149.744,4236.41,4201.538,450.0
1772893802.7113,109,4210.256,4432.308,4151.795,4234.359,4213.333,450.0
1772893802.7192,110,4228.205,4458.974,4149.744,4241.026,4211.282,450.0
1772893802.727,111,4229.744,4444.615,4125.641,4241.026,4218.462,16225.0
1772893802.7349,112,4225.128,4427.692,4125.128,4240.513,4217.949,450.0
1772893802.7428,113,4217.436,4427.692,4148.718,4246.667,4201.538,450.0
1772893802.7506,114,4215.385,4448.205,4141.538,4241.538,4193.846,450.0
1772893802.7585,115,4225.641,4455.897,4133.846,4236.923,4210.256,16225.0
1772893802.7664,116,4233.333,4429.744,4140.0,4248.205,4224.103,450.0
1772893802.7742,117,4234.872,4445.128,4161.538,4245.128,4221.026,450.0
1772893802.7821,118,4246.154,4494.359,4184.103,4234.359,4224.103,450.0
1772893802.79,119,4249.744,4475.897,4174.872,4244.615,4225.128,16225.0
1772893802.7978,120,4239.487,4429.231,4160.513,4253.333,4224.103,450.0
1772893802.8058,121,4245.641,4421.538,4167.692,4241.538,4238.974,450.0
1772893802.8136,122,4253.846,4448.205,4178.462,4234.872,4243.077,450.0
1772893802.8215,123,4240.513,4465.128,4167.692,4242.051,4213.846,16225.0
1772893802.8293,124,4232.821,4431.795,4154.872,4244.103,4196.41,450.0
1772893802.8372,125,4249.231,4430.769,4165.128,4239.487,4226.154,450.0
1772893802.845,126,4261.026,4483.59,4152.821,4244.103,4244.615,450.0
1772893802.8529,127,4243.59,4475.385,4134.872,4241.026,4222.564,234.0
1772893802.8608,0,4234.359,4433.846,4137.436,4226.154,4214.872,450.0
1772893802.8687,1,4248.205,4441.026,4130.256,4226.667,4233.846,450.0
1772893802.8765,2,4246.667,4456.41,4116.923,4235.385,4235.385,16153.0
1772893802.8844,3,4243.077,4461.026,4111.795,4233.846,4221.026,450.0
1772893802.8922,4,4250.769,4466.667,4136.923,4224.615,4213.333,257.0
1772893802.9001,5,4245.641,4451.795,4148.718,4218.974,4205.128,450.0
1772893802.908,6,4238.462,4441.026,4114.359,4225.641,4218.974,0.0
1772893802.9159,7,4252.821,4454.872,4097.949,4233.846,4245.128,450.0
1772893802.9238,8,4261.538,4461.026,4119.487,4238.974,4251.282,450.0
1772893802.9316,9,4244.615,4456.923,4141.026,4240.513,4248.205,16128.0
1772893802.9395,10,4244.103,4450.427,4138.803,4239.43,4244.501,450.0
1772893802.9473,11,4243.59,4443.932,4136.581,4238.348,4240.798,16225.0
1772893802.9551,12,4243.077,4437.436,4134.359,4237.265,4237.094,450.0
1772893802.963,13,4242.564,4430.94,4132.137,4236.182,4233.39,450.0
1772893802.9708,14,4242.051,4424.444,4129.915,4235.1,4229.687,450.0
1772893802.9786,15,4241.538,4417.949,4127.692,4234.017,4225.983,16225.0
1772893802.9864,16,4241.026,4411.453,4125.47,4232.934,4222.279,3584.0
1772893802.9942,17,4240.513,4404.957,4123.248,4231.852,4218.575,1792.0
1772893803.002,18,4240.0,4398.462,4121.026,4230.769,4214.872,0.0
1772893803.0097,19,4243.077,4400.513,4117.949,4226.154,4220.0,0.0
1772893803.0176,20,4235.385,4375.385,4118.974,4220.513,4222.051,0.0
1772893803.0253,21,4246.154,4397.436,4123.59,4231.795,4243.59,0.0
1772893803.0331,22,4259.487,4436.923,4119.487,4253.846,4251.795,0.0
1772893803.0408,23,4233.846,4416.41,4132.821,4228.718,4207.692,0.0
1772893803.0485,24,4230.769,4394.872,4144.103,4218.462,4212.308,0.0
1772893803.0563,25,4229.231,4393.846,4144.103,4234.872,4232.308,0.0
1772893803.064,26,4221.026,4408.718,4143.59,4227.692,4213.333,0.0
1772893803.0719,27,4255.897,4436.923,4140.0,4234.872,4226.667,0.0
1772893803.0796,28,4253.846,4422.051,4145.641,4236.923,4225.128,0.0
1772893803.0874,29,4228.205,4392.821,4160.0,4232.821,4204.103,0.0
1772893803.0951,30,4244.615,4396.41,4154.359,4237.949,4215.385,0.0
1772893803.1029,31,4233.846,4410.769,4145.128,4222.564,4215.897,0.0
1772893803.1106,32,4196.41,4417.949,4148.205,4211.282,4199.487,0.0
1772893803.1185,33,4214.359,4396.923,4154.872,4224.103,4204.103,0.0
1772893803.1262,34,4249.744,4380.0,4167.179,4227.692,4209.744,0.0
1772893803.134,35,4231.282,4404.103,4162.051,4213.846,4193.846,0.0
1772893803.1417,36,4209.744,4409.744,4149.231,4216.41,4197.436,0.0
1772893803.1494,37,4216.923,4390.769,4154.359,4228.718,4216.923,0.0
1772893803.1572,38,4222.564,4415.385,4164.615,4234.872,4226.667,0.0
1772893803.165,39,4220.513,4431.282,4174.359,4231.795,4216.41,0.0
1772893803.1728,40,4221.026,4378.974,4168.205,4215.897,4196.923,0.0
1772893803.1806,41,4222.051,4357.949,4154.872,4213.333,4205.128,0.0
1772893803.1883,42,4220.513,4408.718,4156.41,4217.949,4209.231,0.0
1772893803.1961,43,4225.641,4434.872,4167.692,4220.0,4202.564,0.0
1772893803.2038,44,4223.59,4416.41,4157.436,4221.026,4206.154,0.0
1772893803.2116,45,4217.949,4393.333,4135.897,4213.333,4200.0,0.0
1772893803.2193,46,4238.462,4389.744,4139.487,4214.359,4200.0,0.0
1772893803.2272,47,4241.538,4407.179,4150.769,4214.872,4208.718,0.0
1772893803.2349,48,4220.0,4423.59,4156.41,4214.872,4212.821,0.0
1772893803.2427,49,4229.744,4414.872,4146.667,4220.513,4211.795,0.0
1772893803.2504,50,4249.231,4399.487,4125.128,4210.769,4206.667,0.0
1772893803.2582,51,4252.821,4409.231,4129.744,4208.205,4213.333,0.0
1772893803.2659,52,4249.231,4405.128,4149.744,4217.949,4219.487,0.0
1772893803.2736,53,4248.205,4391.795,4176.923,4212.821,4213.333,0.0
1772893803.2815,54,4252.821,4402.051,4153.846,4210.769,4216.41,0.0
1772893803.2892,55,4250.256,4392.308,4087.179,4217.436,4226.667,0.0
1772893803.297,56,4251.282,4375.897,4097.949,4221.026,4229.744,0.0
1772893803.3047,57,4267.179,4392.821,4167.179,4218.974,4228.718,0.0
1772893803.3125,58,4277.436,4408.718,4208.718,4212.821,4231.282,0.0
1772893803.3203,59,4278.974,4398.974,4176.41,4215.385,4236.41,0.0
1772893803.3281,60,4280.513,4400.0,4107.179,4220.513,4242.051,0.0
1772893803.3359,61,4288.718,4410.256,4101.026,4224.103,4253.846,0.0
1772893803.3436,62,4286.667,4410.256,4164.103,4226.667,4262.051,0.0
1772893803.3513,63,4264.615,4414.872,4200.513,4216.41,4250.256,0.0
1772893803.3591,64,4263.077,4401.538,4141.538,4216.923,4249.231,450.0
1772893803.3668,65,4271.282,4372.308,4076.41,4221.026,4257.436,450.0
1772893803.3746,66,4275.897,4410.256,4100.0,4223.077,4268.205,16190.0
1772893803.3824,67,4280.513,4458.974,4157.949,4230.256,4269.231,450.0
1772893803.3902,68,4265.641,4431.282,4177.436,4221.538,4241.026,16088.0
1772893803.3979,69,4263.59,4394.359,4139.487,4218.462,4235.385,450.0
1772893803.4057,70,4269.744,4395.897,4101.026,4219.487,4247.179,6.0
1772893803.4134,71,4260.0,4412.821,4101.026,4214.359,4244.615,450.0
1772893803.4211,72,4264.103,4421.538,4134.359,4226.667,4251.795,450.0
1772893803.4289,73,4278.974,4421.026,4174.359,4234.872,4256.923,16188.0
1772893803.4368,74,4273.846,4425.641,4150.769,4225.128,4245.641,450.0
1772893803.4445,75,4256.41,4411.282,4092.821,4214.359,4232.821,16232.0
1772893803.4523,76,4257.949,4384.615,4086.154,4215.897,4244.103,450.0
1772893803.46,77,4270.256,4394.872,4133.333,4219.487,4255.385,450.0
1772893803.4678,78,4275.897,4431.795,4168.205,4215.385,4243.077,450.0
1772893803.4755,79,4268.205,4431.795,4145.128,4215.897,4248.205,16232.0
1772893803.4834,80,4255.897,4400.513,4103.59,4215.385,4264.103,450.0
1772893803.4911,81,4253.333,4382.564,4097.436,4204.615,4245.641,450.0
1772893803.4989,82,4256.41,4394.872,4125.128,4199.487,4229.231,450.0
1772893803.5066,83,4266.667,4424.615,4146.667,4212.308,4249.231,16232.0
