time,sample,AF3,T7,Pz,T8,AF4,marker_hardware,label,trial,state
1774524994.0545,59,4296.41,4264.103,4150.256,4189.231,4173.333,0.0,0,1,rest
1774524994.0623,60,4288.718,4279.487,4147.692,4168.718,4168.205,0.0,0,1,rest
1774524994.0702,61,4282.564,4295.897,4148.718,4170.769,4161.026,0.0,0,1,rest
1774524994.0781,62,4284.615,4274.872,4161.538,4187.692,4150.256,0.0,0,1,rest
1774524994.086,63,4282.051,4240.0,4181.538,4185.128,4138.974,0.0,0,1,rest
1774524994.0938,64,4284.103,4255.897,4195.385,4185.641,4137.949,450.0,0,1,rest
1774524994.1017,65,4289.744,4295.897,4203.59,4202.051,4135.385,450.0,0,1,rest
1774524994.1096,66,4290.256,4283.59,4207.179,4198.974,4130.769,16212.0,0,1,rest
1774524994.1174,67,4288.205,4250.256,4198.462,4173.333,4138.462,450.0,0,1,rest
1774524994.1254,68,4284.103,4267.692,4177.436,4160.513,4142.051,16224.0,0,1,rest
1774524994.1332,69,4283.077,4303.59,4171.795,4170.256,4134.359,450.0,0,1,rest
1774524994.141,70,4290.769,4301.026,4181.026,4181.538,4143.077,16194.0,0,1,rest
1774524994.1489,71,4286.154,4281.026,4171.795,4177.949,4151.282,450.0,0,1,rest
1774524994.1567,72,4274.872,4281.026,4162.564,4168.718,4133.846,450.0,0,1,rest
1774524994.1646,73,4280.0,4273.846,4176.923,4181.538,4121.026,16175.0,0,1,rest
1774524994.1724,74,4285.128,4249.744,4186.667,4196.41,4121.538,450.0,0,1,rest
1774524994.1804,75,4276.923,4248.205,4178.974,4177.949,4109.744,16224.0,0,1,rest
1774524994.1882,76,4266.667,4266.667,4169.231,4156.41,4094.872,450.0,0,1,rest
1774524994.1961,77,4263.59,4273.846,4167.692,4165.641,4100.0,450.0,0,1,rest
1774524994.2039,78,4268.718,4261.538,4174.359,4172.821,4113.333,450.0,0,1,rest
1774524994.2118,79,4273.846,4254.359,4183.077,4163.59,4112.308,16224.0,0,1,rest
1774524994.2197,80,4272.821,4274.872,4187.179,4171.282,4114.359,450.0,0,1,rest
1774524994.2275,81,4268.205,4291.795,4188.205,4180.0,4131.795,450.0,0,1,rest
1774524994.2355,82,4275.385,4274.359,4179.487,4170.769,4140.513,450.0,0,1,rest
1774524994.2434,83,4280.0,4257.436,4173.333,4171.282,4129.744,16224.0,0,1,rest
1774524994.2512,84,4260.0,4279.487,4180.513,4186.154,4118.974,450.0,0,1,rest
1774524994.259,85,4257.949,4306.154,4176.923,4184.103,4127.179,450.0,0,1,rest
1774524994.2669,86,4296.923,4295.897,4168.718,4180.513,4143.59,450.0,0,1,rest
1774524994.2747,87,4310.769,4264.615,4172.308,4187.179,4142.564,16224.0,0,1,rest
1774524994.2827,88,4285.641,4271.282,4175.385,4173.333,4118.974,450.0,0,1,rest
1774524994.2905,89,4284.103,4306.667,4174.872,4157.949,4114.872,450.0,0,1,rest
1774524994.2984,90,4293.846,4288.718,4172.821,4169.231,4141.538,450.0,0,1,rest
1774524994.3062,91,4283.077,4247.692,4166.667,4182.051,4156.41,16224.0,0,1,rest
1774524994.3141,92,4274.359,4267.692,4169.744,4185.641,4164.615,450.0,0,1,rest
1774524994.3219,93,4273.846,4297.436,4181.538,4196.41,4180.0,450.0,0,1,rest
1774524994.3298,94,4276.923,4268.718,4180.0,4201.538,4184.615,450.0,0,1,rest
1774524994.3377,95,4281.026,4240.0,4175.385,4191.795,4180.513,16224.0,0,1,rest
1774524994.3456,96,4286.154,4272.821,4176.923,4188.205,4191.795,450.0,0,1,rest
1774524994.3534,97,4286.154,4301.538,4169.231,4191.795,4202.051,450.0,0,1,rest
1774524994.3613,98,4273.846,4276.41,4155.897,4187.179,4194.359,450.0,0,1,rest
1774524994.3691,99,4258.974,4270.256,4154.359,4171.795,4199.487,16224.0,0,1,rest
1774524994.377,100,4257.949,4298.974,4160.513,4166.154,4211.795,450.0,0,1,rest
1774524994.3848,101,4264.615,4295.897,4161.538,4175.385,4207.692,450.0,0,1,rest
1774524994.3928,102,4271.795,4269.744,4163.59,4180.0,4211.282,450.0,0,1,rest
1774524994.4007,103,4281.538,4271.795,4170.769,4178.974,4230.256,16224.0,0,1,rest
1774524994.4085,104,4290.769,4285.641,4174.359,4187.179,4237.436,450.0,0,1,rest
1774524994.4164,105,4294.359,4274.872,4171.795,4197.949,4239.487,450.0,0,1,rest
1774524994.4242,106,4288.205,4246.154,4171.282,4195.897,4248.205,450.0,0,1,rest
1774524994.4321,107,4280.513,4242.564,4173.846,4194.359,4255.897,16224.0,0,1,rest
1774524994.44,108,4277.949,4280.0,4176.923,4194.359,4258.462,450.0,0,1,rest
1774524994.4479,109,4267.692,4301.026,4171.795,4182.051,4247.179,450.0,0,1,rest
1774524994.4557,110,4260.0,4277.436,4154.872,4165.641,4229.744,450.0,0,1,rest
1774524994.4636,111,4274.359,4250.769,4151.282,4162.564,4225.641,16224.0,0,1,rest
1774524994.4715,112,4274.872,4258.462,4165.128,4175.897,4226.667,450.0,0,1,rest
1774524994.4793,113,4254.872,4284.615,4171.795,4186.667,4227.692,450.0,0,1,rest
1774524994.4872,114,4264.615,4286.667,4167.179,4186.667,4236.41,450.0,0,1,rest
1774524994.4951,115,4286.667,4268.718,4173.846,4189.744,4247.692,16224.0,0,1,rest
1774524994.503,116,4288.718,4279.487,4189.744,4210.256,4261.538,450.0,0,1,rest
1774524994.5108,117,4293.333,4304.103,4192.821,4215.385,4272.308,450.0,0,1,rest
1774524994.5187,118,4292.308,4284.615,4187.179,4193.846,4264.615,450.0,0,1,rest
1774524994.5266,119,4271.282,4246.667,4183.59,4180.0,4249.744,16224.0,0,1,rest
1774524994.5344,120,4272.821,4257.949,4185.128,4177.436,4248.718,450.0,0,1,rest
1774524994.5423,121,4291.795,4292.308,4185.128,4177.949,4265.128,450.0,0,1,rest
1774524994.5502,122,4288.974,4293.269,4183.974,4179.038,4270.192,450.0,0,1,rest
1774524994.558,123,4286.154,4294.231,4182.821,4180.128,4275.256,450.0,0,1,rest
1774524994.5658,124,4283.333,4295.192,4181.667,4181.218,4280.321,450.0,0,1,rest
1774524994.5736,125,4280.513,4296.154,4180.513,4182.308,4285.385,450.0,0,1,rest
1774524994.5814,126,4277.692,4297.115,4179.359,4183.397,4290.449,450.0,0,1,rest
1774524994.5892,127,4274.872,4298.077,4178.205,4184.487,4295.513,450.0,0,1,rest
1774524994.5971,0,4272.051,4299.038,4177.051,4185.577,4300.577,450.0,0,1,rest
1774524994.6049,1,4269.231,4300.0,4175.897,4186.667,4305.641,450.0,0,1,rest
1774524994.6126,2,4265.128,4280.0,4182.051,4196.41,4304.103,16224.0,0,1,rest
1774524994.6204,3,4255.897,4263.59,4179.487,4186.667,4305.641,450.0,0,1,rest
1774524994.6281,4,4254.359,4266.667,4167.179,4153.846,4298.974,16244.0,0,1,rest
1774524994.6359,5,4257.436,4257.949,4172.821,4146.667,4289.744,450.0,0,1,rest
1774524994.6436,6,4262.051,4248.718,4183.077,4162.051,4301.538,16203.0,0,1,rest
1774524994.6515,7,4264.615,4262.564,4178.974,4164.615,4312.308,450.0,0,1,rest
1774524994.6592,8,4258.974,4275.385,4175.385,4173.333,4307.179,450.0,0,1,rest
1774524994.667,9,4252.308,4265.128,4187.179,4190.769,4313.846,16193.0,0,1,rest
1774524994.6747,10,4255.385,4255.897,4204.103,4193.846,4328.718,450.0,0,1,rest
1774524994.6825,11,4254.872,4255.385,4208.205,4180.0,4327.692,16211.0,0,1,rest
1774524994.6902,12,4237.436,4258.974,4200.513,4165.641,4315.897,450.0,0,1,rest
1774524994.698,13,4220.0,4274.872,4188.718,4166.154,4297.949,450.0,0,1,rest
1774524994.7058,14,4215.897,4277.949,4185.128,4158.462,4282.564,450.0,0,1,rest
1774524994.7136,15,4224.615,4252.821,4191.795,4147.179,4295.385,16211.0,0,1,rest
1774524994.7213,16,4237.949,4250.769,4200.513,4165.128,4310.256,0.0,0,1,rest
1774524994.7291,17,4237.436,4275.897,4197.436,4172.821,4297.436,0.0,0,1,rest
1774524994.7368,18,4230.769,4275.897,4192.308,4153.333,4298.974,0.0,0,1,rest
1774524994.7446,19,4244.103,4277.949,4197.949,4159.487,4322.564,0.0,0,1,rest
1774524994.7523,20,4258.462,4304.615,4198.462,4184.615,4314.359,0.0,0,1,rest
1774524994.7601,21,4245.128,4296.41,4187.692,4174.872,4292.308,0.0,0,1,rest
1774524994.7679,22,4228.718,4265.128,4179.487,4167.692,4297.436,0.0,0,1,rest
1774524994.7756,23,4238.974,4264.615,4180.513,4187.179,4296.923,0.0,0,1,rest
1774524994.7834,24,4254.359,4291.282,4184.103,4185.641,4288.718,0.0,0,1,rest
1774524994.7911,25,4250.256,4315.385,4183.077,4172.821,4300.513,0.0,0,1,rest
1774524994.7989,26,4230.256,4301.026,4179.487,4174.359,4298.974,0.0,0,1,rest
1774524994.8067,27,4224.615,4270.256,4178.974,4178.974,4280.513,0.0,0,1,rest
1774524994.8145,28,4241.538,4280.513,4183.59,4176.41,4280.0,0.0,0,1,rest
1774524994.8222,29,4243.59,4311.282,4187.179,4183.077,4276.923,0.0,0,1,rest
1774524994.83,30,4226.154,4287.179,4182.051,4197.436,4261.026,0.0,0,1,rest
1774524994.8377,31,4223.077,4249.231,4165.641,4181.538,4264.615,0.0,0,1,rest
1774524994.8455,32,4232.821,4273.846,4155.385,4161.026,4277.949,0.0,0,1,rest
1774524994.8532,33,4232.821,4297.949,4168.205,4168.718,4270.769,0.0,0,1,rest
1774524994.8611,34,4235.897,4278.462,4181.538,4184.103,4265.641,0.0,0,1,rest
1774524994.8688,35,4252.308,4277.436,4177.436,4184.103,4277.436,0.0,0,1,rest
1774524994.8766,36,4256.923,4303.077,4180.0,4177.436,4275.897,0.0,0,1,rest
1774524994.8843,37,4246.667,4286.154,4193.846,4184.615,4254.359,0.0,0,1,rest
1774524994.892,38,4244.103,4251.282,4191.795,4198.462,4246.667,0.0,0,1,rest
1774524994.8998,39,4247.692,4259.487,4177.436,4188.205,4253.846,0.0,0,1,rest
1774524994.9075,40,4241.026,4284.615,4174.359,4160.0,4245.641,0.0,0,1,rest
1774524994.9154,41,4222.564,4295.897,4172.308,4157.436,4221.538,0.0,0,1,rest
1774524994.9231,42,4211.795,4282.564,4161.026,4170.256,4202.051,0.0,0,1,rest
1774524994.9309,43,4212.821,4267.692,4157.436,4166.667,4194.872,0.0,0,1,rest
1774524994.9387,44,4213.333,4272.821,4161.026,4171.795,4204.615,0.0,0,1,rest
1774524994.9464,45,4214.359,4284.615,4162.564,4186.667,4226.667,0.0,0,1,rest
1774524994.9542,46,4221.026,4285.128,4166.154,4183.077,4234.872,0.0,0,1,rest
1774524994.9619,47,4227.179,4268.718,4171.282,4169.231,4232.821,0.0,0,1,rest
1774524994.9697,48,4226.154,4257.949,4174.872,4170.769,4239.487,0.0,0,1,rest
1774524994.9775,49,4232.308,4271.795,4170.256,4184.103,4234.872,0.0,0,1,rest
1774524994.9852,50,4236.41,4290.769,4157.436,4175.385,4213.846,0.0,0,1,rest
1774524994.9929,51,4228.205,4278.974,4160.0,4161.538,4211.795,0.0,0,1,rest
1774524995.0007,52,4227.179,4278.462,4183.077,4173.333,4237.436,0.0,0,1,rest
1774524995.0084,53,4239.487,4296.923,4195.385,4180.513,4257.436,0.0,0,1,rest
1774524995.0161,54,4252.308,4277.436,4193.333,4170.769,4263.077,0.0,0,1,rest
1774524995.024,55,4245.641,4272.308,4194.359,4174.359,4266.154,0.0,0,1,rest
1774524995.0318,56,4228.205,4307.692,4195.385,4188.718,4273.333,0.0,0,1,rest
1774524995.0396,57,4233.333,4305.641,4193.846,4186.667,4291.282,0.0,0,1,rest
1774524995.0473,58,4247.692,4278.462,4186.154,4180.513,4308.205,0.0,0,1,rest
1774524995.055,59,4243.59,4285.641,4179.487,4181.538,4314.359,0.0,0,1,rest
1774524995.0628,60,4236.41,4293.333,4180.513,4174.872,4310.769,0.0,0,1,rest
1774524995.0706,61,4234.359,4272.821,4177.436,4161.026,4299.487,0.0,0,1,rest
1774524995.0784,62,4223.077,4272.821,4164.103,4148.718,4290.769,0.0,0,1,rest
1774524995.0861,63,4218.974,4291.282,4161.026,4146.154,4289.744,0.0,0,1,rest
1774524995.0939,64,4219.487,4289.744,4172.308,4149.744,4293.333,450.0,0,1,rest
1774524995.1016,65,4202.051,4272.821,4176.41,4148.718,4304.615,450.0,0,1,rest
1774524995.1094,66,4205.641,4276.923,4171.282,4155.897,4312.308,16217.0,0,1,rest
1774524995.1171,67,4229.231,4285.128,4167.179,4165.641,4303.59,450.0,0,1,rest
1774524995.125,68,4222.564,4273.846,4167.692,4157.436,4301.538,16232.0,0,1,rest
1774524995.1327,69,4201.026,4279.487,4165.641,4148.718,4305.641,450.0,0,1,rest
1774524995.1405,70,4199.487,4291.282,4167.179,4158.974,4290.769,16205.0,0,1,rest
1774524995.1482,71,4202.051,4269.744,4180.0,4163.59,4292.821,450.0,0,1,rest
1774524995.1559,72,4210.256,4265.641,4191.282,4161.026,4318.462,450.0,0,1,rest
1774524995.1637,73,4230.256,4282.051,4192.821,4173.333,4316.41,16174.0,0,1,rest
1774524995.1714,74,4234.872,4277.436,4184.103,4177.436,4297.436,450.0,0,1,rest
1774524995.1793,75,4230.256,4265.641,4187.179,4160.513,4293.846,16202.0,0,1,rest
1774524995.187,76,4242.564,4276.923,4210.769,4153.846,4295.385,450.0,0,1,rest
1774524995.1948,77,4252.821,4302.051,4211.282,4163.077,4291.795,450.0,0,1,rest
1774524995.2025,78,4239.487,4302.564,4186.154,4156.41,4280.513,450.0,0,1,rest
1774524995.2103,79,4215.385,4278.974,4180.0,4145.641,4259.487,16202.0,0,1,rest
1774524995.218,80,4206.154,4268.205,4192.308,4165.641,4256.923,450.0,0,1,rest
1774524995.2258,81,4213.333,4262.051,4194.872,4174.872,4271.282,450.0,0,1,rest
1774524995.2336,82,4206.154,4249.744,4192.821,4153.333,4254.359,450.0,0,1,rest
1774524995.2414,83,4197.436,4251.282,4190.769,4158.462,4230.256,16202.0,0,1,rest
1774524995.2491,84,4216.923,4269.744,4181.538,4182.564,4253.333,450.0,0,1,rest
1774524995.2569,85,4232.821,4279.487,4167.179,4177.949,4273.846,450.0,0,1,rest
1774524995.2646,86,4224.103,4275.385,4160.0,4159.487,4238.974,450.0,0,1,rest
1774524995.2724,87,4215.385,4258.462,4167.692,4153.333,4213.333,16202.0,0,1,rest
1774524995.2802,88,4214.872,4257.949,4171.795,4157.436,4235.385,450.0,0,1,rest
1774524995.288,89,4214.359,4275.897,4164.103,4165.128,4240.513,450.0,0,1,rest
1774524995.2957,90,4213.846,4272.308,4159.487,4164.615,4223.59,450.0,0,1,rest
1774524995.3034,91,4210.769,4258.974,4163.59,4162.051,4238.462,16202.0,0,1,rest
1774524995.3112,92,4213.846,4265.641,4171.282,4163.59,4260.513,450.0,0,1,rest
1774524995.319,93,4220.0,4274.359,4168.205,4161.538,4253.846,450.0,0,1,rest
1774524995.3267,94,4217.949,4270.769,4161.026,4158.462,4249.744,450.0,0,1,rest
1774524995.3345,95,4214.359,4261.026,4167.692,4157.436,4254.872,16202.0,0,1,rest
1774524995.3423,96,4207.179,4258.974,4175.385,4151.282,4243.077,450.0,0,1,rest
1774524995.35,97,4199.487,4266.667,4164.615,4154.359,4230.256,450.0,0,1,rest
1774524995.3578,98,4208.718,4257.436,4160.0,4159.487,4223.59,450.0,0,1,rest
1774524995.3655,99,4216.41,4248.718,4175.897,4153.333,4222.051,16202.0,0,1,rest
1774524995.3733,100,4215.385,4273.846,4183.59,4161.026,4236.923,450.0,0,1,rest
1774524995.381,101,4220.513,4276.41,4173.333,4167.179,4246.154,450.0,0,1,rest
1774524995.3889,102,4212.821,4248.718,4167.179,4151.282,4240.513,450.0,0,1,rest
1774524995.3966,103,4194.872,4255.897,4171.282,4139.487,4233.846,16202.0,0,1,rest
1774524995.4044,104,4200.0,4280.0,4179.487,4146.154,4219.487,450.0,0,1,rest
1774524995.4121,105,4215.897,4264.103,4179.487,4154.872,4214.359,450.0,0,1,rest
1774524995.4199,106,4222.051,4242.051,4175.385,4162.051,4229.744,450.0,0,1,rest
1774524995.4276,107,4227.692,4253.846,4175.385,4165.641,4225.128,16202.0,0,1,rest
1774524995.4354,108,4229.231,4273.846,4178.462,4170.256,4206.667,450.0,0,1,rest
1774524995.4432,109,4231.282,4286.667,4186.667,4182.564,4215.897,450.0,0,1,rest
1774524995.451,110,4238.974,4281.026,4187.692,4174.872,4243.59,450.0,0,1,rest
1774524995.4587,111,4235.385,4253.846,4180.0,4163.59,4261.026,16202.0,0,1,rest
1774524995.4665,112,4224.103,4253.333,4186.154,4181.538,4266.154,450.0,0,1,rest
1774524995.4742,113,4215.385,4278.462,4196.923,4191.795,4258.462,450.0,0,1,rest
1774524995.4819,114,4204.103,4266.667,4189.231,4178.462,4250.769,450.0,0,1,rest
1774524995.4897,115,4193.333,4238.462,4181.538,4164.615,4246.667,16202.0,0,1,rest
1774524995.4975,116,4190.769,4269.231,4186.154,4152.308,4244.103,450.0,0,1,rest
1774524995.5053,117,4191.282,4295.897,4184.615,4151.282,4255.897,450.0,0,1,rest
1774524995.513,118,4196.41,4253.333,4186.154,4163.59,4266.667,450.0,0,1,rest
1774524995.5208,119,4202.051,4240.0,4196.923,4164.615,4258.462,16202.0,0,1,rest
1774524995.5285,120,4202.564,4282.564,4198.974,4157.949,4264.615,450.0,0,1,rest
1774524995.5363,121,4207.179,4287.179,4198.974,4164.103,4285.128,450.0,0,1,rest
1774524995.5442,122,4215.385,4265.641,4206.667,4169.744,4280.0,450.0,0,1,rest
1774524995.5519,123,4209.744,4267.179,4197.436,4158.462,4260.0,16202.0,0,1,rest
1774524995.5596,124,4198.974,4263.077,4180.0,4150.256,4247.692,450.0,0,1,rest
1774524995.5674,125,4202.564,4256.923,4180.0,4157.949,4237.436,450.0,0,1,rest
1774524995.5751,126,4209.744,4263.077,4183.077,4163.59,4247.179,450.0,0,1,rest
1774524995.5829,127,4208.205,4245.128,4187.179,4153.846,4265.641,234.0,0,1,rest
1774524995.5906,0,4218.974,4245.641,4204.615,4164.615,4271.282,450.0,0,1,rest
1774524995.5985,1,4250.769,4284.615,4214.359,4194.872,4280.513,450.0,0,1,rest
1774524995.6062,2,4259.487,4289.744,4202.051,4193.333,4282.564,16225.0,0,1,rest
1774524995.6139,3,4242.051,4272.308,4193.333,4169.744,4262.051,450.0,0,1,rest
1774524995.6217,4,4241.026,4274.872,4193.846,4166.667,4252.821,16234.0,0,1,rest
1774524995.6294,5,4248.718,4272.821,4176.923,4170.769,4255.897,450.0,0,1,rest
1774524995.6372,6,4240.0,4266.154,4161.026,4169.231,4250.769,16195.0,0,1,rest
1774524995.645,7,4229.231,4276.41,4167.692,4189.744,4257.436,450.0,0,1,rest
1774524995.6528,8,4230.769,4282.051,4177.949,4201.538,4277.949,450.0,0,1,rest
1774524995.6606,9,4233.333,4267.179,4178.462,4174.359,4287.692,16194.0,0,1,rest
1774524995.6683,10,4234.359,4256.923,4172.308,4162.051,4292.308,450.0,0,1,rest
1774524995.6761,11,4231.795,4257.949,4168.718,4175.897,4295.385,16213.0,0,1,rest
1774524995.6838,12,4226.154,4265.128,4171.282,4174.872,4290.769,450.0,0,1,rest
1774524995.6916,13,4225.641,4278.462,4170.256,4162.564,4280.0,450.0,0,1,rest
1774524995.6993,14,4223.077,4280.0,4163.077,4163.077,4269.231,450.0,0,1,rest
1774524995.7071,15,4219.487,4266.667,4170.256,4170.769,4260.0,16213.0,0,1,rest
1774524995.7149,16,4222.051,4261.026,4185.128,4171.282,4258.974,0.0,0,1,rest
1774524995.7226,17,4223.59,4269.231,4181.538,4166.154,4265.641,0.0,0,1,rest
1774524995.7304,18,4229.744,4280.513,4177.436,4170.256,4271.795,0.0,0,1,rest
1774524995.7381,19,4244.103,4273.333,4182.051,4182.051,4276.923,0.0,0,1,rest
1774524995.7458,20,4245.641,4251.282,4176.923,4174.872,4276.923,0.0,0,1,rest
1774524995.7537,21,4224.103,4257.436,4166.154,4164.615,4257.949,0.0,0,1,rest
1774524995.7615,22,4213.846,4280.513,4166.154,4177.949,4230.769,0.0,0,1,rest
1774524995.7693,23,4224.103,4262.051,4174.359,4178.462,4224.103,0.0,0,1,rest
1774524995.777,24,4225.128,4252.308,4170.769,4163.59,4230.256,0.0,0,1,rest
1774524995.7847,25,4212.308,4277.436,4157.949,4163.077,4226.154,0.0,0,1,rest
1774524995.7925,26,4205.128,4284.103,4155.385,4168.205,4220.0,0.0,0,1,rest
1774524995.8002,27,4219.487,4277.436,4162.051,4166.154,4221.538,0.0,0,1,rest
1774524995.8081,28,4235.897,4281.026,4172.308,4168.718,4224.103,0.0,0,1,rest
1774524995.8158,29,4226.667,4295.385,4180.513,4172.821,4221.026,0.0,0,1,rest
1774524995.8236,30,4221.538,4301.026,4185.128,4182.051,4221.026,0.0,0,1,rest
1774524995.8313,31,4233.333,4274.872,4184.615,4196.923,4225.128,0.0,0,1,rest
1774524995.8391,32,4233.333,4260.513,4183.077,4188.205,4224.615,0.0,0,1,rest
1774524995.8468,33,4223.59,4271.795,4178.974,4158.974,4215.897,0.0,0,1,rest
1774524995.8546,34,4226.154,4267.692,4170.256,4153.333,4213.846,0.0,0,1,rest
1774524995.8624,35,4223.077,4274.872,4169.231,4167.179,4221.026,0.0,0,1,rest
1774524995.8702,36,4214.359,4297.436,4173.333,4168.205,4215.385,0.0,0,1,rest
1774524995.8779,37,4224.615,4278.974,4176.923,4170.769,4214.872,0.0,0,1,rest
1774524995.8856,38,4235.385,4254.872,4179.487,4181.538,4231.282,0.0,0,1,rest
1774524995.8934,39,4235.897,4275.897,4175.385,4173.333,4236.41,0.0,0,1,rest
1774524995.9012,40,4237.949,4295.385,4168.718,4159.487,4234.359,0.0,0,1,rest
1774524995.9089,41,4235.897,4281.538,4171.282,4164.615,4245.128,0.0,0,1,rest
1774524995.9167,42,4228.718,4266.154,4175.897,4172.821,4245.128,0.0,0,1,rest
1774524995.9245,43,4223.59,4263.59,4164.615,4165.641,4219.487,0.0,0,1,rest
1774524995.9322,44,4214.872,4267.179,4144.615,4160.513,4201.538,0.0,0,1,rest
1774524995.94,45,4210.769,4291.282,4146.154,4177.436,4211.282,0.0,0,1,rest
1774524995.9477,46,4224.615,4313.846,4171.282,4190.256,4230.256,0.0,0,1,rest
1774524995.9555,47,4224.615,4284.615,4177.949,4167.692,4226.154,0.0,0,1,rest
1774524995.9632,48,4205.128,4260.0,4158.462,4146.154,4202.051,0.0,0,1,rest
1774524995.9711,49,4202.564,4278.974,4150.256,4158.462,4208.205,0.0,0,1,rest
1774524995.9788,50,4220.0,4278.462,4160.0,4175.385,4242.564,0.0,0,1,rest
1774524995.9866,51,4229.744,4258.462,4164.615,4174.872,4241.538,0.0,0,1,rest
1774524995.9943,52,4224.615,4276.41,4160.513,4175.385,4219.487,0.0,0,1,rest
1774524996.0021,53,4226.154,4311.282,4157.949,4180.513,4235.897,0.0,0,1,rest
1774524996.0098,54,4237.949,4306.667,4157.436,4170.256,4257.436,0.0,0,1,rest
1774524996.0177,55,4236.41,4273.333,4162.051,4155.385,4244.615,0.0,0,1,rest
1774524996.0254,56,4223.59,4265.641,4174.359,4166.154,4239.487,0.0,0,1,rest
1774524996.0332,57,4219.487,4282.564,4180.513,4180.0,4248.205,0.0,0,1,rest
1774524996.0409,58,4220.0,4272.308,4179.487,4170.256,4246.667,0.0,0,1,rest
1774524996.0487,59,4213.846,4253.846,4175.897,4160.513,4248.205,0.0,0,1,rest
1774524996.0564,60,4212.308,4271.795,4172.308,4163.59,4244.615,0.0,0,1,rest
1774524996.0641,61,4222.564,4291.282,4170.769,4168.718,4231.795,0.0,0,1,rest
1774524996.072,62,4231.282,4288.205,4172.308,4169.744,4234.359,0.0,0,1,rest
1774524996.0797,63,4218.974,4267.179,4169.231,4160.0,4238.974,0.0,0,1,rest
1774524996.0875,64,4198.462,4260.0,4159.487,4153.333,4233.333,450.0,0,1,rest
1774524996.0952,65,4188.205,4276.41,4156.923,4157.436,4218.974,450.0,0,1,rest
1774524996.103,66,4183.59,4271.282,4162.564,4154.872,4204.103,16213.0,0,1,rest
1774524996.1107,67,4187.692,4245.128,4161.026,4149.744,4202.564,450.0,0,1,rest
1774524996.1184,68,4201.026,4253.846,4158.974,4161.538,4204.615,16242.0,0,1,rest
1774524996.1263,69,4203.59,4284.103,4165.128,4177.949,4202.051,450.0,0,1,rest
1774524996.1341,70,4204.615,4274.359,4171.282,4177.949,4220.513,16208.0,0,1,rest
1774524996.1418,71,4217.436,4260.0,4173.846,4178.462,4256.41,450.0,0,1,rest
1774524996.1495,72,4218.974,4276.923,4167.179,4184.103,4262.564,450.0,0,1,rest
1774524996.1572,73,4211.795,4275.897,4161.026,4181.538,4252.308,16180.0,0,1,rest
1774524996.165,74,4215.897,4260.513,4164.103,4178.462,4244.615,450.0,0,1,rest
1774524996.1728,75,4211.795,4258.974,4164.103,4177.436,4229.231,16212.0,0,1,rest
1774524996.1806,76,4192.821,4269.744,4158.974,4163.59,4234.872,450.0,0,1,rest
1774524996.1884,77,4187.179,4276.41,4161.026,4149.231,4259.487,450.0,0,1,rest
1774524996.1961,78,4190.769,4280.513,4172.821,4156.41,4262.564,450.0,0,1,rest
1774524996.2038,79,4191.795,4284.615,4180.513,4174.872,4261.026,16212.0,0,1,rest
1774524996.2116,80,4203.077,4283.077,4184.103,4180.0,4256.923,450.0,0,1,rest
1774524996.2193,81,4213.846,4286.154,4183.59,4171.795,4229.231,450.0,0,1,rest
1774524996.2272,82,4211.282,4278.462,4171.795,4180.513,4232.821,450.0,0,1,rest
1774524996.2349,83,4208.718,4263.077,4164.615,4192.821,4265.128,16212.0,0,1,rest
1774524996.2427,84,4206.154,4267.692,4171.795,4173.846,4247.692,450.0,0,1,rest
1774524996.2505,85,4191.282,4281.026,4176.923,4154.872,4219.487,450.0,0,1,rest
1774524996.2582,86,4188.205,4268.205,4183.59,4172.821,4237.949,450.0,0,1,rest
1774524996.2659,87,4206.154,4250.256,4196.923,4189.231,4249.231,16212.0,0,1,rest
1774524996.2737,88,4209.231,4273.333,4196.923,4177.949,4233.333,450.0,0,1,rest
1774524996.2815,89,4194.359,4298.462,4183.077,4174.359,4233.846,450.0,0,1,rest
1774524996.2893,90,4191.795,4276.41,4181.026,4179.487,4252.308,450.0,0,1,rest
1774524996.297,91,4203.077,4252.821,4180.513,4169.231,4264.615,16212.0,0,1,rest
1774524996.3048,92,4209.744,4273.333,4170.769,4162.564,4250.256,450.0,0,1,rest
1774524996.3125,93,4212.821,4298.974,4168.205,4169.231,4227.692,450.0,0,1,rest
1774524996.3203,94,4206.154,4275.385,4165.128,4166.154,4224.103,450.0,0,1,rest
1774524996.328,95,4191.282,4236.41,4156.41,4160.0,4229.231,16212.0,0,1,rest
1774524996.3358,96,4197.436,4251.282,4170.769,4164.615,4236.41,450.0,0,1,rest
1774524996.3436,97,4211.282,4279.487,4183.59,4169.744,4232.308,450.0,0,1,rest
1774524996.3513,98,4204.103,4254.359,4168.718,4168.205,4204.615,450.0,0,1,rest
1774524996.3591,99,4197.949,4235.897,4173.846,4162.564,4199.487,16212.0,0,1,rest
1774524996.3669,100,4208.718,4275.385,4195.385,4159.487,4229.744,450.0,0,1,rest
1774524996.3746,101,4208.205,4297.949,4190.256,4167.179,4231.282,450.0,0,1,rest
1774524996.3824,102,4203.077,4280.0,4177.949,4170.256,4211.282,450.0,0,1,rest
1774524996.3902,103,4210.256,4262.564,4175.385,4162.051,4207.692,16212.0,0,1,rest
1774524996.398,104,4209.231,4256.923,4172.308,4166.667,4189.744,450.0,0,1,rest
1774524996.4057,105,4200.0,4265.128,4175.385,4172.821,4173.333,450.0,0,1,rest
1774524996.4135,106,4204.103,4272.821,4184.615,4167.179,4198.974,450.0,0,1,rest
1774524996.4212,107,4210.256,4275.385,4186.154,4172.308,4215.385,16212.0,0,1,rest
1774524996.429,108,4197.949,4279.487,4181.026,4183.59,4195.385,450.0,0,1,rest
1774524996.4368,109,4192.308,4278.974,4176.923,4186.667,4198.462,450.0,0,1,rest
1774524996.4446,110,4209.744,4268.718,4174.359,4180.513,4213.846,450.0,0,1,rest
1774524996.4523,111,4217.949,4256.923,4173.846,4181.538,4204.103,16212.0,0,1,rest
1774524996.46,112,4215.897,4267.692,4177.436,4197.949,4201.026,450.0,0,1,rest
1774524996.4677,113,4228.718,4285.641,4183.077,4206.154,4207.179,450.0,0,1,rest
1774524996.4755,114,4244.615,4280.513,4190.256,4198.462,4199.487,450.0,0,1,rest
1774524996.4833,115,4236.923,4260.513,4189.231,4193.846,4188.718,16212.0,0,1,rest
1774524996.4911,116,4211.282,4273.333,4181.026,4190.256,4186.154,450.0,0,1,rest
1774524996.4989,117,4206.154,4287.692,4184.615,4180.513,4191.795,450.0,0,1,rest
1774524996.5066,118,4229.744,4265.128,4197.949,4184.103,4199.487,450.0,0,1,rest
1774524996.5144,119,4241.026,4262.051,4206.667,4197.949,4201.538,16212.0,0,1,rest
1774524996.5221,120,4241.026,4297.436,4206.154,4195.897,4204.103,450.0,0,1,rest
1774524996.5299,121,4254.359,4310.769,4202.564,4185.641,4210.256,450.0,0,1,rest
1774524996.5376,122,4248.718,4288.205,4201.538,4185.128,4197.949,450.0,0,1,rest
1774524996.5455,123,4229.744,4265.641,4193.333,4185.641,4183.077,16212.0,0,1,rest
1774524996.5532,124,4251.282,4266.154,4188.718,4180.513,4204.103,450.0,0,1,rest
1774524996.561,125,4286.667,4275.897,4198.462,4186.154,4231.795,450.0,0,1,rest
1774524996.5687,126,4281.538,4275.897,4205.641,4193.333,4217.436,450.0,0,1,rest
1774524996.5765,127,4262.564,4269.744,4204.103,4185.641,4187.179,234.0,0,1,rest
1774524996.5842,0,4251.795,4276.923,4202.051,4175.385,4192.821,450.0,0,1,rest
1774524996.5921,1,4234.359,4284.103,4201.538,4166.154,4201.026,450.0,0,1,rest
1774524996.5998,2,4228.205,4271.795,4201.026,4160.0,4180.513,16214.0,0,1,rest
1774524996.6075,3,4230.256,4250.256,4197.436,4164.103,4166.667,450.0,0,1,rest
1774524996.6153,4,4225.641,4251.795,4189.744,4163.077,4171.795,16232.0,0,1,rest
1774524996.623,5,4223.59,4272.821,4182.051,4164.615,4171.795,450.0,0,1,rest
1774524996.6308,6,4225.128,4269.231,4185.128,4179.487,4162.564,16203.0,0,1,rest
1774524996.6385,7,4234.359,4268.205,4196.923,4179.487,4171.795,450.0,0,1,rest
1774524996.6464,8,4232.308,4293.333,4202.564,4162.051,4173.846,450.0,0,1,rest
1774524996.6541,9,4211.795,4280.513,4200.513,4157.436,4153.846,16181.0,0,1,rest
1774524996.6619,10,4217.949,4253.846,4190.256,4170.769,4162.564,450.0,0,1,rest
1774524996.6696,11,4245.128,4259.487,4173.333,4169.744,4186.154,16220.0,0,1,rest
1774524996.6774,12,4239.487,4259.487,4170.256,4149.744,4167.692,450.0,0,1,rest
1774524996.6851,13,4215.897,4250.769,4176.41,4154.872,4144.103,450.0,0,1,rest
1774524996.6929,14,4224.615,4266.667,4176.41,4180.0,4161.026,450.0,0,1,rest
1774524996.7007,15,4240.0,4281.538,4172.308,4175.897,4170.769,16220.0,0,1,rest
1774524996.7085,16,4235.385,4272.308,4168.205,4156.923,4148.718,0.0,0,1,rest
1774524996.7162,17,4235.385,4267.179,4165.641,4161.538,4134.359,0.0,0,1,rest
1774524996.724,18,4242.564,4260.513,4161.026,4161.026,4134.872,0.0,0,1,rest
1774524996.7317,19,4240.0,4238.462,4155.897,4152.821,4133.846,0.0,0,1,rest
1774524996.7394,20,4237.436,4242.564,4158.974,4164.103,4133.846,0.0,0,1,rest
1774524996.7473,21,4240.0,4276.923,4161.026,4163.077,4138.974,0.0,0,1,rest
1774524996.7551,22,4231.282,4269.231,4154.872,4140.513,4127.179,0.0,0,1,rest
1774524996.7628,23,4221.538,4234.359,4148.718,4137.436,4104.103,0.0,0,1,rest
1774524996.7706,24,4227.692,4255.897,4149.231,4156.41,4113.333,0.0,0,1,rest
1774524996.7783,25,4233.846,4286.667,4153.846,4170.256,4143.59,0.0,0,1,rest
1774524996.7861,26,4237.436,4257.436,4163.077,4176.923,4141.538,0.0,0,1,rest
1774524996.7938,27,4243.077,4232.821,4172.821,4181.538,4130.769,0.0,0,1,rest
1774524996.8016,28,4245.641,4262.051,4168.205,4170.256,4149.744,0.0,0,1,rest
1774524996.8094,29,4249.231,4283.59,4157.436,4150.256,4161.538,0.0,0,1,rest
1774524996.8171,30,4255.897,4260.513,4155.897,4150.256,4148.205,0.0,0,1,rest
1774524996.8249,31,4254.872,4236.923,4161.026,4162.051,4141.026,0.0,0,1,rest
1774524996.8326,32,4249.744,4269.744,4171.795,4172.308,4149.744,0.0,0,1,rest
1774524996.8404,33,4249.231,4300.513,4178.462,4185.641,4145.641,0.0,0,1,rest
1774524996.8481,34,4257.949,4275.385,4167.692,4177.436,4129.744,0.0,0,1,rest
1774524996.856,35,4263.59,4271.282,4160.0,4153.846,4123.59,0.0,0,1,rest
1774524996.8637,36,4254.872,4298.462,4165.641,4152.308,4120.513,0.0,0,1,rest
1774524996.8715,37,4256.41,4281.538,4154.872,4169.744,4125.641,0.0,0,1,rest
1774524996.8792,38,4272.821,4243.59,4142.564,4180.513,4140.513,0.0,0,1,rest
1774524996.887,39,4276.41,4261.026,4150.256,4189.231,4148.205,0.0,0,1,rest
1774524996.8947,40,4272.308,4293.333,4153.846,4203.077,4137.949,0.0,0,1,rest
1774524996.9025,41,4271.282,4271.795,4148.718,4193.333,4126.154,0.0,0,1,rest
1774524996.9103,42,4271.282,4243.59,4154.872,4173.333,4124.103,0.0,0,1,rest
1774524996.918,43,4274.872,4270.769,4159.487,4176.41,4127.692,0.0,0,1,rest
1774524996.9258,44,4268.205,4301.538,4150.769,4177.949,4127.179,0.0,0,1,rest
1774524996.9335,45,4250.769,4271.795,4148.205,4170.256,4118.462,0.0,0,1,rest
1774524996.9414,46,4252.821,4251.282,4156.41,4174.359,4124.103,0.0,0,1,rest
1774524996.9492,47,4264.103,4272.308,4164.615,4175.897,4136.41,0.0,0,1,rest
1774524996.9571,48,4262.564,4277.949,4168.718,4171.795,4131.282,0.0,0,1,rest
1774524996.9648,49,4259.487,4261.026,4167.692,4184.615,4122.051,0.0,0,1,rest
1774524996.9726,50,4263.59,4257.436,4173.846,4186.667,4131.795,0.0,0,1,rest
1774524996.9803,51,4269.231,4271.282,4177.949,4178.462,4143.077,0.0,0,1,rest
1774524996.9881,52,4265.641,4277.949,4167.179,4187.692,4131.795,0.0,0,1,rest
1774524996.9959,53,4257.949,4276.41,4155.897,4178.462,4113.846,0.0,0,1,rest
1774524997.0036,54,4256.41,4257.436,4150.256,4147.692,4109.231,0.0,0,1,rest
1774524997.0114,55,4253.846,4237.949,4151.282,4138.974,4108.205,0.0,0,1,rest
1774524997.0192,56,4248.205,4258.974,4154.872,4150.256,4102.051,0.0,0,1,rest
1774524997.0269,57,4242.564,4284.615,4155.385,4160.513,4097.949,0.0,0,1,rest
1774524997.0347,58,4237.949,4279.487,4159.487,4173.333,4110.256,0.0,0,1,rest
1774524997.0424,59,4239.487,4270.769,4169.744,4181.026,4129.231,0.0,0,1,rest
1774524997.0502,60,4240.0,4278.462,4170.256,4171.795,4137.436,0.0,0,1,rest
1774524997.0579,61,4233.846,4273.333,4164.103,4156.41,4135.897,0.0,0,1,rest
1774524997.0658,62,4224.615,4257.949,4164.103,4151.795,4136.41,0.0,0,1,rest
1774524997.0735,63,4235.897,4268.205,4167.692,4162.051,4155.385,0.0,0,1,rest
1774524997.0814,64,4261.026,4294.872,4162.051,4182.051,4177.949,450.0,0,1,rest
1774524997.0892,65,4258.974,4284.615,4151.282,4192.821,4178.974,450.0,0,1,rest
1774524997.097,66,4232.308,4241.026,4148.718,4177.436,4169.744,16229.0,0,1,rest
1774524997.1047,67,4224.615,4248.205,4156.41,4155.385,4162.051,450.0,0,1,rest
1774524997.1126,68,4235.385,4293.333,4166.154,4160.0,4157.949,16234.0,0,1,rest
1774524997.1203,69,4234.872,4282.564,4167.692,4172.821,4173.846,450.0,0,1,rest
1774524997.1281,70,4237.949,4254.872,4160.513,4172.308,4201.538,16186.0,0,1,rest
1774524997.1358,71,4243.077,4262.051,4153.846,4170.769,4195.385,450.0,0,1,rest
1774524997.1435,72,4225.128,4268.205,4143.59,4168.205,4173.333,450.0,0,1,rest
1774524997.1513,73,4214.359,4256.923,4141.026,4161.026,4175.897,16194.0,0,1,rest
1774524997.1591,74,4228.718,4257.949,4153.846,4162.051,4182.051,450.0,0,1,rest
1774524997.1669,75,4231.282,4271.282,4163.077,4162.051,4182.051,16220.0,0,1,rest
1774524997.1746,76,4232.821,4284.615,4167.692,4170.769,4189.744,450.0,0,1,rest
1774524997.1824,77,4251.795,4292.821,4178.974,4187.692,4197.949,450.0,0,1,rest
1774524997.1901,78,4256.41,4278.462,4190.256,4183.077,4198.974,450.0,0,1,rest
1774524997.1979,79,4248.718,4260.513,4184.103,4169.231,4195.385,16220.0,0,1,rest
1774524997.2057,80,4258.974,4274.872,4173.333,4169.231,4189.231,450.0,0,1,rest
1774524997.2134,81,4269.744,4299.487,4173.846,4164.615,4194.359,450.0,0,1,rest
1774524997.2214,82,4264.615,4289.744,4176.41,4156.41,4205.641,450.0,0,1,rest
1774524997.2292,83,4259.487,4272.821,4177.436,4173.333,4209.231,16220.0,0,1,rest
1774524997.237,84,4256.41,4282.564,4169.744,4185.128,4205.641,450.0,0,1,rest
1774524997.2448,85,4247.692,4281.538,4156.923,4160.513,4190.769,450.0,0,1,rest
1774524997.2525,86,4251.795,4282.051,4158.974,4151.282,4182.564,450.0,0,1,rest
1774524997.2604,87,4264.615,4292.821,4165.128,4171.795,4193.846,16220.0,0,1,rest
1774524997.2682,88,4249.231,4284.103,4153.333,4169.744,4208.205,450.0,0,1,rest
1774524997.2762,89,4219.487,4272.821,4139.487,4142.564,4214.872,450.0,0,1,rest
1774524997.284,90,4217.949,4282.051,4141.026,4146.667,4210.769,450.0,0,1,rest
1774524997.2919,91,4231.795,4291.795,4145.128,4177.436,4211.282,16220.0,0,1,rest
1774524997.2997,92,4229.744,4286.154,4146.667,4177.436,4232.308,450.0,0,1,rest
1774524997.3074,93,4220.513,4279.487,4149.744,4157.436,4242.564,450.0,0,1,rest
1774524997.3152,94,4217.436,4266.667,4159.487,4152.308,4225.128,450.0,0,1,rest
1774524997.323,95,4227.692,4252.821,4176.923,4163.077,4227.179,16220.0,0,1,rest
1774524997.3309,96,4247.179,4272.821,4190.256,4166.154,4250.769,450.0,0,1,rest
1774524997.3387,97,4241.538,4296.41,4184.103,4163.59,4236.41,450.0,0,1,rest
1774524997.3465,98,4216.923,4272.308,4168.205,4165.128,4204.615,450.0,0,1,rest
1774524997.3542,99,4214.872,4254.359,4170.256,4157.949,4217.949,16220.0,0,1,rest
1774524997.3621,100,4228.205,4292.308,4177.436,4151.795,4233.846,450.0,0,1,rest
1774524997.3699,101,4224.103,4306.154,4162.564,4155.385,4199.487,450.0,0,1,rest
1774524997.3779,102,4211.795,4271.282,4144.615,4152.821,4176.923,450.0,0,1,rest
1774524997.3857,103,4211.282,4255.897,4148.718,4148.205,4186.667,16220.0,0,1,rest
1774524997.3936,104,4222.051,4270.769,4161.026,4161.538,4182.564,450.0,0,1,rest
1774524997.4014,105,4233.846,4287.179,4156.923,4166.667,4184.615,450.0,0,1,rest
1774524997.4093,106,4235.385,4275.897,4143.59,4140.513,4197.949,450.0,0,1,rest
1774524997.4171,107,4228.718,4256.41,4139.487,4130.769,4190.256,16220.0,0,1,rest
1774524997.425,108,4222.564,4262.051,4136.41,4150.769,4177.436,450.0,0,1,rest
1774524997.4329,109,4220.513,4261.538,4132.821,4155.897,4170.256,450.0,0,1,rest
1774524997.4408,110,4223.077,4258.462,4134.359,4148.205,4160.0,450.0,0,1,rest
1774524997.4486,111,4230.769,4271.795,4136.923,4158.462,4162.564,16220.0,0,1,rest
1774524997.4565,112,4238.974,4282.564,4144.615,4170.769,4181.538,450.0,0,1,rest
1774524997.4643,113,4238.974,4273.846,4153.846,4156.41,4185.128,450.0,0,1,rest
1774524997.472,114,4238.462,4258.462,4160.513,4144.103,4177.949,450.0,0,1,rest
1774524997.4799,115,4243.59,4267.692,4168.205,4155.897,4188.718,16220.0,0,1,rest
1774524997.4878,116,4248.205,4293.846,4168.205,4163.077,4195.385,450.0,0,1,rest
1774524997.4956,117,4241.538,4284.103,4158.462,4151.795,4182.564,450.0,0,1,rest
1774524997.5033,118,4230.769,4238.462,4155.897,4144.615,4183.59,450.0,0,1,rest
1774524997.5111,119,4231.282,4248.718,4165.128,4150.769,4197.436,16220.0,0,1,rest
1774524997.5188,120,4227.179,4301.538,4170.769,4147.692,4186.154,450.0,0,1,rest
1774524997.5267,121,4216.923,4308.718,4180.0,4134.872,4176.41,450.0,0,1,rest
1774524997.5346,122,4218.462,4291.282,4191.795,4137.436,4184.615,450.0,0,1,rest
1774524997.5425,123,4223.59,4285.641,4187.692,4148.718,4178.974,16220.0,0,1,rest
1774524997.5503,124,4228.718,4293.846,4177.949,4158.462,4188.205,450.0,0,1,rest
1774524997.5582,125,4253.333,4301.538,4183.59,4177.436,4217.436,450.0,0,1,rest
1774524997.566,126,4267.179,4284.615,4190.769,4186.667,4206.154,450.0,0,1,rest
1774524997.5739,127,4254.359,4274.872,4183.077,4165.128,4182.051,234.0,0,1,rest
1774524997.5817,0,4256.41,4300.0,4179.487,4153.846,4196.41,450.0,0,1,rest
1774524997.5897,1,4251.795,4317.436,4191.282,4171.795,4198.462,450.0,0,1,rest
1774524997.5975,2,4242.051,4290.769,4197.949,4176.923,4186.667,16234.0,0,1,rest
1774524997.6054,3,4257.436,4269.231,4184.615,4166.154,4195.385,450.0,0,1,rest
1774524997.6132,4,4256.923,4289.744,4164.615,4164.103,4197.949,16228.0,0,1,rest
1774524997.6211,5,4234.872,4292.308,4167.179,4163.59,4188.205,450.0,0,1,rest
1774524997.6289,6,4236.41,4268.718,4184.615,4161.026,4191.282,16189.0,0,1,rest
1774524997.6368,7,4243.59,4277.436,4192.308,4163.077,4183.077,450.0,0,1,rest
1774524997.6447,8,4236.923,4306.154,4192.308,4166.667,4165.128,450.0,0,1,rest
1774524997.6524,9,4242.051,4313.846,4192.821,4180.513,4180.0,16194.0,0,1,rest
1774524997.6603,10,4253.333,4295.385,4188.205,4193.846,4187.692,450.0,0,1,rest
1774524997.6681,11,4256.923,4271.795,4186.667,4181.026,4169.744,16213.0,0,1,rest
1774524997.676,12,4254.359,4270.256,4188.205,4158.974,4182.051,450.0,0,1,rest
1774524997.6838,13,4237.949,4287.179,4175.897,4149.231,4201.538,450.0,0,1,rest
1774524997.6918,14,4231.282,4290.256,4164.103,4153.333,4185.641,450.0,0,1,rest
1774524997.6996,15,4233.333,4273.333,4171.282,4158.974,4178.974,16213.0,0,1,rest
1774524997.7074,16,4226.667,4273.333,4182.051,4162.564,4208.205,0.0,0,1,rest
1774524997.7151,17,4229.231,4292.308,4186.154,4168.718,4228.718,0.0,0,1,rest
1774524997.7229,18,4236.41,4293.333,4190.256,4164.615,4230.769,0.0,0,1,rest
1774524997.7306,19,4235.897,4271.282,4195.385,4157.436,4239.487,0.0,0,1,rest
1774524997.7385,20,4233.846,4270.256,4197.949,4160.0,4243.077,0.0,0,1,rest
1774524997.7465,21,4232.308,4300.513,4189.231,4156.41,4235.385,0.0,0,1,rest
1774524997.7543,22,4239.487,4302.051,4185.128,4157.436,4245.128,0.0,0,1,rest
1774524997.7622,23,4255.385,4280.0,4194.872,4175.385,4265.128,0.0,0,1,rest
1774524997.77,24,4259.487,4276.41,4193.333,4170.769,4258.974,0.0,0,1,rest
1774524997.7779,25,4250.769,4276.41,4184.615,4149.231,4242.051,0.0,0,1,rest
1774524997.7857,26,4246.667,4270.769,4189.231,4154.359,4240.0,0.0,0,1,rest
1774524997.7936,27,4250.256,4268.205,4201.026,4157.949,4236.923,0.0,0,1,rest
1774524997.8015,28,4253.846,4275.385,4202.564,4140.0,4239.487,0.0,0,1,rest
1774524997.8094,29,4246.154,4276.923,4194.359,4141.538,4263.077,0.0,0,1,rest
1774524997.8172,30,4244.615,4269.231,4198.462,4164.103,4270.256,0.0,0,1,rest
1774524997.8251,31,4266.154,4269.231,4210.256,4161.538,4250.256,0.0,0,1,rest
1774524997.8329,32,4269.231,4280.513,4206.154,4138.462,4245.128,0.0,0,1,rest
1774524997.8408,33,4245.641,4281.026,4187.692,4136.923,4253.846,0.0,0,1,rest
1774524997.8486,34,4232.821,4257.949,4181.538,4143.59,4235.385,0.0,0,1,rest
1774524997.8566,35,4211.795,4238.974,4181.538,4131.282,4205.641,0.0,0,1,rest
1774524997.8645,36,4193.846,4251.795,4164.103,4120.513,4212.308,0.0,0,1,rest
1774524997.8723,37,4214.359,4278.974,4157.949,4131.795,4237.949,0.0,0,1,rest
1774524997.8802,38,4232.308,4287.179,4177.436,4153.846,4249.231,0.0,0,1,rest
1774524997.888,39,4217.949,4265.128,4185.641,4161.026,4244.615,0.0,0,1,rest
1774524997.8959,40,4212.821,4257.949,4176.923,4147.179,4238.462,0.0,0,1,rest
1774524997.9039,41,4224.103,4280.0,4172.821,4134.359,4231.795,0.0,0,1,rest
1774524997.9117,42,4215.897,4275.897,4175.385,4139.487,4219.487,0.0,0,1,rest
1774524997.9196,43,4203.077,4247.179,4169.231,4152.821,4213.333,0.0,0,1,rest
1774524997.9274,44,4204.103,4256.41,4154.872,4149.231,4221.538,0.0,0,1,rest
1774524997.9353,45,4209.744,4288.205,4152.308,4137.436,4232.821,0.0,0,1,rest
1774524997.9431,46,4216.41,4293.333,4162.564,4143.59,4238.462,0.0,0,1,rest
1774524997.951,47,4220.513,4273.333,4169.744,4154.872,4240.513,0.0,0,1,rest
1774524997.9589,48,4228.205,4272.308,4172.821,4157.436,4242.051,0.0,0,1,rest
1774524997.9668,49,4236.923,4290.769,4175.897,4162.564,4248.205,0.0,0,1,rest
1774524997.9746,50,4229.744,4287.692,4173.846,4148.205,4247.692,0.0,0,1,rest
1774524997.9825,51,4213.333,4267.692,4169.744,4120.513,4246.667,0.0,0,1,rest
1774524997.9903,52,4218.462,4280.513,4172.821,4125.641,4267.692,0.0,0,1,rest
1774524997.9982,53,4229.744,4306.154,4181.026,4144.615,4286.667,0.0,0,1,rest
1774524998.006,54,4218.462,4286.667,4178.974,4141.026,4283.59,0.0,0,1,rest
1774524998.014,55,4207.179,4254.872,4160.513,4131.795,4283.077,0.0,0,1,rest
1774524998.0218,56,4214.359,4276.41,4148.718,4141.026,4297.436,0.0,0,1,rest
1774524998.0297,57,4220.513,4306.667,4159.487,4157.436,4308.718,0.0,0,1,rest
1774524998.0375,58,4211.282,4290.769,4165.128,4149.744,4303.59,0.0,0,1,rest
1774524998.0454,59,4203.59,4273.333,4158.462,4128.718,4289.231,0.0,0,1,rest
1774524998.0532,60,4224.615,4289.744,4169.744,4143.077,4290.769,0.0,0,1,rest
1774524998.0612,61,4250.769,4301.538,4182.051,4169.231,4291.795,0.0,0,1,rest
1774524998.069,62,4241.538,4289.231,4171.795,4160.0,4265.641,0.0,0,1,rest
1774524998.0769,63,4223.077,4273.333,4167.179,4156.41,4261.538,0.0,0,1,rest
1774524998.0848,64,4227.179,4271.282,4166.667,4168.205,4291.282,450.0,0,1,rest
1774524998.0926,65,4232.821,4289.744,4160.513,4156.41,4289.744,450.0,0,1,rest
1774524998.1004,66,4230.769,4297.949,4166.667,4146.667,4272.821,16231.0,0,1,rest
1774524998.1083,67,4230.256,4271.795,4173.846,4160.513,4289.231,450.0,0,1,rest
1774524998.1163,68,4241.538,4272.308,4171.282,4168.205,4315.385,16224.0,0,1,rest
1774524998.1241,69,4263.077,4313.333,4177.436,4161.538,4315.897,450.0,0,1,rest
1774524998.132,70,4263.59,4324.103,4182.564,4172.821,4316.923,16201.0,0,1,rest
1774524998.1398,71,4244.103,4283.077,4176.41,4189.231,4327.179,450.0,0,1,rest
1774524998.1477,72,4244.103,4266.154,4176.41,4178.974,4307.179,450.0,0,1,rest
1774524998.1555,73,4260.0,4290.769,4184.615,4163.077,4275.897,16189.0,0,1,rest
1774524998.1635,74,4260.513,4290.769,4186.154,4162.564,4291.795,450.0,0,1,rest
1774524998.1713,75,4254.872,4274.872,4180.0,4166.154,4331.282,16211.0,0,1,rest
1774524998.1792,76,4251.795,4288.205,4174.872,4165.128,4333.846,450.0,0,1,rest
1774524998.187,77,4242.051,4294.872,4175.897,4160.513,4319.487,450.0,0,1,rest
1774524998.1949,78,4241.026,4272.821,4184.103,4162.051,4325.641,450.0,0,1,rest
1774524998.2027,79,4255.385,4279.487,4184.103,4176.41,4330.256,16211.0,0,1,rest
1774524998.2106,80,4255.385,4306.667,4172.821,4172.821,4314.359,450.0,0,1,rest
1774524998.2185,81,4234.872,4291.282,4166.154,4147.179,4312.308,450.0,0,1,rest
1774524998.2264,82,4225.641,4266.154,4171.795,4147.179,4335.897,450.0,0,1,rest
1774524998.2342,83,4223.59,4276.923,4177.436,4161.538,4336.923,16211.0,0,1,rest
1774524998.2421,84,4222.051,4296.923,4172.821,4159.487,4321.538,450.0,0,1,rest
1774524998.25,85,4230.769,4288.718,4169.744,4148.205,4332.308,450.0,0,1,rest
1774524998.2578,86,4228.718,4278.974,4171.795,4146.667,4347.692,450.0,0,1,rest
1774524998.2657,87,4212.308,4288.718,4175.897,4157.436,4338.974,16211.0,0,1,rest
1774524998.2736,88,4213.333,4292.821,4178.974,4165.128,4337.949,450.0,0,1,rest
1774524998.2815,89,4222.564,4292.821,4174.872,4159.487,4349.231,450.0,0,1,rest
1774524998.2893,90,4212.821,4284.615,4162.564,4161.026,4338.462,450.0,0,1,rest
1774524998.2972,91,4202.051,4262.564,4156.923,4165.641,4330.256,16211.0,0,1,rest
1774524998.305,92,4198.462,4263.59,4153.846,4158.974,4351.795,450.0,0,1,rest
1774524998.3129,93,4195.385,4291.282,4144.103,4165.128,4364.615,450.0,0,1,rest
1774524998.3208,94,4201.026,4293.846,4145.641,4170.769,4348.205,450.0,0,1,rest
1774524998.3287,95,4206.667,4271.795,4155.385,4157.949,4336.41,16211.0,0,1,rest
1774524998.3365,96,4206.667,4271.282,4154.872,4157.436,4337.436,450.0,0,1,rest
1774524998.3443,97,4208.718,4280.0,4152.821,4167.179,4343.077,450.0,0,1,rest
1774524998.3522,98,4208.205,4276.923,4151.282,4155.897,4354.872,450.0,0,1,rest
1774524998.3601,99,4208.718,4273.846,4148.718,4149.231,4351.795,16211.0,0,1,rest
1774524998.3679,100,4215.385,4276.41,4156.41,4170.769,4333.846,450.0,0,1,rest
1774524998.3759,101,4211.795,4271.282,4163.077,4171.795,4330.256,450.0,0,1,rest
1774524998.3838,102,4201.538,4269.744,4162.051,4146.667,4340.0,450.0,0,1,rest
1774524998.3916,103,4200.513,4290.256,4161.026,4151.282,4348.205,16211.0,0,1,rest
1774524998.3995,104,4203.59,4300.513,4159.487,4173.333,4342.564,450.0,0,1,rest
1774524998.4073,105,4207.692,4277.949,4158.462,4163.59,4330.256,450.0,0,1,rest
1774524998.4152,106,4218.462,4265.128,4162.564,4157.436,4335.897,450.0,0,1,rest
1774524998.423,107,4228.205,4272.821,4163.59,4184.103,4350.256,16211.0,0,1,rest
1774524998.431,108,4229.231,4272.308,4161.538,4181.538,4350.769,450.0,0,1,rest
1774524998.4388,109,4225.128,4266.667,4167.692,4152.821,4354.359,450.0,0,1,rest
1774524998.4466,110,4220.0,4262.051,4167.179,4155.897,4366.154,450.0,0,1,rest
1774524998.4545,111,4214.359,4254.872,4154.359,4165.641,4361.026,16211.0,0,1,rest
1774524998.4624,112,4215.897,4275.385,4158.462,4156.923,4344.103,450.0,0,1,rest
1774524998.4702,113,4215.897,4310.256,4172.821,4169.231,4331.795,450.0,0,1,rest
1774524998.4782,114,4206.154,4290.256,4169.744,4176.41,4328.205,450.0,0,1,rest
1774524998.486,115,4196.41,4250.256,4162.051,4148.205,4335.897,16211.0,0,1,rest
1774524998.4939,116,4196.41,4271.282,4164.615,4138.974,4341.538,450.0,0,1,rest
1774524998.5017,117,4202.564,4297.949,4163.077,4158.462,4338.462,450.0,0,1,rest
1774524998.5096,118,4200.513,4270.256,4158.974,4155.897,4340.513,450.0,0,1,rest
1774524998.5174,119,4196.923,4242.564,4163.077,4156.41,4344.103,16211.0,0,1,rest
1774524998.5253,120,4199.487,4266.154,4167.692,4180.0,4326.154,450.0,0,1,rest
1774524998.5333,121,4198.462,4294.359,4166.667,4171.795,4296.923,450.0,0,1,rest
1774524998.5411,122,4195.385,4277.436,4168.205,4152.821,4301.026,450.0,0,1,rest
1774524998.5489,123,4196.923,4258.462,4170.769,4165.128,4328.718,16211.0,0,1,rest
1774524998.5568,124,4202.564,4282.564,4164.103,4169.744,4334.872,450.0,0,1,rest
1774524998.5646,125,4204.615,4290.769,4155.897,4164.615,4322.051,450.0,0,1,rest
1774524998.5725,126,4209.231,4262.051,4154.872,4174.872,4313.846,450.0,0,1,rest
1774524998.5803,127,4222.564,4267.692,4162.051,4177.949,4321.026,234.0,0,1,rest
1774524998.5883,0,4226.154,4288.718,4166.154,4161.538,4333.846,450.0,0,1,rest
1774524998.5962,1,4206.154,4276.923,4156.41,4157.436,4331.282,450.0,0,1,rest
1774524998.604,2,4195.897,4272.821,4147.692,4164.615,4323.077,16222.0,0,1,rest
1774524998.6119,3,4208.718,4263.59,4151.795,4169.231,4322.564,450.0,0,1,rest
1774524998.6197,4,4203.077,4238.974,4152.308,4176.41,4315.897,16239.0,0,1,rest
1774524998.6276,5,4185.641,4254.359,4144.615,4173.333,4306.667,450.0,0,1,rest
1774524998.6355,6,4184.103,4284.615,4151.795,4157.949,4300.513,16191.0,0,1,rest
1774524998.6434,7,4181.538,4276.923,4162.051,4153.333,4280.513,450.0,0,1,rest
1774524998.6512,8,4171.795,4256.923,4155.897,4161.026,4263.59,450.0,0,1,rest
1774524998.6591,9,4169.744,4256.923,4155.385,4159.487,4277.436,16195.0,0,1,rest
1774524998.667,10,4181.538,4270.769,4171.795,4159.487,4311.282,450.0,0,1,rest
1774524998.6748,11,4197.949,4273.333,4188.718,4181.538,4337.436,16220.0,0,1,rest
1774524998.6827,12,4202.051,4268.205,4190.769,4186.667,4335.897,450.0,0,1,rest
1774524998.6906,13,4195.385,4275.897,4184.103,4164.615,4329.231,450.0,0,1,rest
1774524998.6985,14,4194.359,4267.179,4176.41,4153.846,4330.256,450.0,0,1,rest
1774524998.7063,15,4194.872,4244.103,4171.282,4158.462,4321.026,16220.0,0,1,rest
1774524998.7142,16,4198.974,4263.59,4172.308,4164.103,4335.897,0.0,0,1,rest
1774524998.722,17,4217.436,4292.821,4177.949,4168.205,4363.59,0.0,0,1,rest
1774524998.7299,18,4218.462,4264.615,4177.949,4169.231,4351.282,0.0,0,1,rest
1774524998.7378,19,4198.462,4242.051,4170.256,4160.0,4330.256,0.0,0,1,rest
1774524998.7457,20,4199.487,4281.026,4167.179,4150.769,4338.974,0.0,0,1,rest
1774524998.7535,21,4213.846,4306.667,4174.872,4154.359,4351.282,0.0,0,1,rest
1774524998.7614,22,4214.872,4273.333,4178.462,4162.051,4350.256,0.0,0,1,rest
1774524998.7693,23,4210.256,4243.59,4168.205,4153.846,4347.692,0.0,0,1,rest
1774524998.7771,24,4205.128,4265.128,4160.513,4144.615,4342.564,0.0,0,1,rest
1774524998.7849,25,4199.487,4291.795,4172.308,4152.821,4328.205,0.0,0,1,rest
1774524998.7928,26,4195.897,4282.564,4182.564,4156.923,4308.718,0.0,0,1,rest
1774524998.8006,27,4197.949,4281.026,4179.487,4164.103,4310.256,0.0,0,1,rest
1774524998.8085,28,4203.077,4294.872,4182.564,4178.462,4323.077,0.0,0,1,rest
1774524998.8163,29,4207.692,4288.205,4186.667,4170.769,4314.872,0.0,0,1,rest
1774524998.8242,30,4213.333,4272.308,4179.487,4158.974,4315.385,0.0,0,1,rest
1774524998.8321,31,4224.103,4269.231,4178.974,4174.359,4325.641,0.0,0,1,rest
1774524998.8399,32,4228.718,4279.487,4189.744,4184.103,4305.128,0.0,0,1,rest
1774524998.8479,33,4220.513,4287.179,4193.333,4169.231,4296.41,0.0,0,1,rest
1774524998.8557,34,4222.051,4282.564,4197.949,4175.897,4343.59,0.0,0,1,rest
1774524998.8636,35,4228.205,4279.487,4205.641,4199.487,4367.692,0.0,0,1,rest
1774524998.8714,36,4204.615,4291.795,4196.923,4186.154,4331.282,0.0,0,1,rest
1774524998.8793,37,4178.462,4299.487,4182.051,4157.436,4318.462,0.0,0,1,rest
1774524998.8871,38,4191.795,4284.615,4182.051,4162.051,4349.744,0.0,0,1,rest
1774524998.8951,39,4217.436,4287.179,4190.769,4178.974,4358.974,0.0,0,1,rest
1774524998.9029,40,4218.462,4298.974,4186.667,4172.308,4334.872,0.0,0,1,rest
1774524998.9108,41,4205.128,4277.436,4173.333,4149.231,4321.538,0.0,0,1,rest
1774524998.9186,42,4206.154,4260.513,4172.308,4135.897,4340.513,0.0,0,1,rest
1774524998.9265,43,4218.462,4275.385,4181.026,4152.308,4365.641,0.0,0,1,rest
1774524998.9343,44,4221.538,4287.692,4179.487,4169.231,4362.564,0.0,0,1,rest
1774524998.9422,45,4217.436,4273.333,4178.974,4156.41,4352.308,0.0,0,1,rest
1774524998.9501,46,4219.487,4256.41,4188.718,4149.231,4362.564,0.0,0,1,rest
1774524998.958,47,4217.436,4266.667,4189.231,4166.154,4355.897,0.0,0,1,rest
1774524998.9658,48,4210.256,4295.897,4186.154,4178.974,4334.359,0.0,0,1,rest
1774524998.9737,49,4220.0,4300.0,4190.256,4174.359,4345.641,0.0,0,1,rest
1774524998.9816,50,4232.821,4263.59,4191.282,4165.128,4367.179,0.0,0,1,rest
1774524998.9894,51,4219.487,4246.154,4184.615,4170.769,4356.923,0.0,0,1,rest
1774524998.9972,52,4198.462,4274.872,4178.974,4175.385,4337.436,0.0,0,1,rest
1774524999.0052,53,4199.487,4296.923,4171.282,4157.949,4332.308,0.0,0,1,rest
1774524999.013,54,4206.154,4277.949,4162.564,4144.615,4340.513,0.0,0,1,rest
1774524999.0209,55,4201.538,4248.718,4167.692,4158.462,4358.462,0.0,0,1,rest
1774524999.0287,56,4200.0,4263.59,4179.487,4167.179,4368.718,0.0,0,1,rest
1774524999.0366,57,4206.154,4304.615,4181.538,4159.487,4364.103,0.0,0,1,rest
1774524999.0444,58,4212.821,4306.667,4176.41,4171.795,4364.615,0.0,0,1,rest
1774524999.0524,59,4218.462,4284.103,4173.846,4191.795,4367.179,0.0,0,1,rest
1774524999.0602,60,4216.41,4280.513,4172.821,4181.538,4352.308,0.0,0,1,rest
1774524999.0681,61,4209.744,4276.923,4173.846,4162.051,4331.282,0.0,0,1,rest
1774524999.0759,62,4208.718,4264.615,4176.41,4165.641,4330.256,0.0,0,1,rest
1774524999.0838,63,4222.051,4263.59,4174.359,4174.359,4337.436,0.0,0,1,rest
1774524999.0916,64,4236.41,4281.538,4175.385,4174.359,4340.513,450.0,0,1,rest
1774524999.0995,65,4218.974,4305.128,4179.487,4172.308,4346.667,450.0,0,1,rest
1774524999.1074,66,4189.231,4309.231,4175.897,4165.641,4348.205,16214.0,0,1,rest
1774524999.1153,67,4189.231,4277.949,4176.923,4172.821,4338.974,450.0,0,1,rest
1774524999.1231,68,4205.128,4257.949,4185.641,4193.846,4335.897,16243.0,0,1,rest
1774524999.131,69,4212.308,4280.513,4193.333,4185.641,4344.615,450.0,0,1,rest
1774524999.1389,70,4210.769,4291.795,4189.231,4155.897,4343.077,16197.0,0,1,rest
1774524999.1467,71,4197.949,4277.949,4171.282,4146.154,4330.256,450.0,0,1,rest
1774524999.1546,72,4191.795,4273.333,4156.923,4154.359,4326.154,450.0,0,1,rest
1774524999.1625,73,4207.179,4270.769,4154.872,4158.462,4330.769,16178.0,0,1,rest
1774524999.1703,74,4217.436,4244.103,4155.897,4162.564,4328.205,450.0,0,1,rest
1774524999.1782,75,4214.359,4240.0,4163.59,4174.872,4326.154,16220.0,0,1,rest
1774524999.1861,76,4217.436,4285.128,4182.564,4183.59,4336.41,450.0,0,1,rest
1774524999.1939,77,4226.667,4291.795,4193.333,4177.949,4342.051,450.0,0,1,rest
1774524999.2017,78,4234.359,4255.897,4189.744,4167.179,4345.128,450.0,0,1,rest
1774524999.2097,79,4230.769,4266.667,4191.795,4167.692,4338.462,16220.0,0,1,rest
1774524999.2176,80,4218.974,4300.0,4195.897,4167.179,4314.872,450.0,0,1,rest
1774524999.2254,81,4213.333,4292.308,4187.692,4155.385,4314.872,450.0,0,1,rest
1774524999.2333,82,4213.846,4278.974,4181.538,4163.077,4335.385,450.0,0,1,rest
1774524999.2411,83,4210.769,4286.667,4180.513,4181.026,4322.051,16220.0,0,1,rest
1774524999.2489,84,4211.795,4290.256,4173.846,4170.256,4306.667,450.0,0,1,rest
1774524999.2568,85,4222.051,4294.872,4163.59,4152.821,4324.615,450.0,0,1,rest
1774524999.2648,86,4232.821,4296.923,4162.564,4162.564,4331.795,450.0,0,1,rest
1774524999.2727,87,4234.872,4275.897,4167.692,4176.41,4314.872,16220.0,0,1,rest
1774524999.2805,88,4230.769,4259.487,4172.821,4174.872,4308.718,450.0,0,1,rest
1774524999.2883,89,4233.846,4267.179,4178.974,4173.846,4309.231,450.0,0,1,rest
1774524999.2962,90,4236.923,4278.974,4180.513,4181.538,4296.41,450.0,0,1,rest
1774524999.304,91,4232.821,4273.846,4182.564,4187.692,4278.462,16220.0,0,1,rest
1774524999.312,92,4233.846,4272.821,4186.154,4174.872,4264.615,450.0,0,1,rest
1774524999.3198,93,4238.974,4281.538,4185.641,4157.436,4258.974,450.0,0,1,rest
1774524999.3277,94,4238.462,4277.949,4195.385,4165.641,4271.795,450.0,0,1,rest
1774524999.3355,95,4242.051,4268.718,4209.744,4182.564,4289.744,16220.0,0,1,rest
1774524999.3434,96,4260.0,4276.923,4218.974,4193.846,4287.692,450.0,0,1,rest
1774524999.3512,97,4271.795,4303.59,4214.872,4196.41,4272.821,450.0,0,1,rest
1774524999.3591,98,4266.667,4302.564,4204.103,4186.154,4260.0,450.0,0,1,rest
1774524999.367,99,4251.795,4250.769,4200.0,4173.846,4238.462,16220.0,0,1,rest
1774524999.3749,100,4242.051,4231.795,4200.0,4167.692,4218.462,450.0,0,1,rest
1774524999.3828,101,4242.051,4278.974,4204.103,4154.359,4213.846,450.0,0,1,rest
1774524999.3906,102,4247.179,4310.769,4215.897,4151.282,4216.41,450.0,0,1,rest
1774524999.3985,103,4254.359,4292.821,4223.077,4167.692,4230.769,16220.0,0,1,rest
1774524999.4063,104,4252.308,4283.59,4215.385,4168.205,4240.0,450.0,0,1,rest
1774524999.4141,105,4256.923,4297.436,4206.154,4173.846,4228.718,450.0,0,1,rest
1774524999.4221,106,4273.846,4296.41,4197.949,4187.179,4226.154,450.0,0,1,rest
1774524999.43,107,4276.923,4277.436,4184.103,4171.795,4245.641,16220.0,0,1,rest
1774524999.4378,108,4267.692,4277.949,4174.359,4153.846,4258.974,450.0,0,1,rest
1774524999.4457,109,4267.179,4300.513,4170.769,4162.051,4257.436,450.0,0,1,rest
1774524999.4535,110,4274.359,4295.385,4177.436,4176.923,4264.103,450.0,0,1,rest
1774524999.4614,111,4278.462,4265.641,4195.897,4178.462,4281.538,16220.0,0,1,rest
1774524999.4693,112,4277.949,4279.487,4212.821,4171.795,4275.385,450.0,0,1,rest
1774524999.4772,113,4266.667,4303.077,4219.487,4157.436,4235.897,450.0,0,1,rest
1774524999.485,114,4262.564,4289.231,4216.923,4159.487,4221.538,450.0,0,1,rest
1774524999.4929,115,4269.744,4288.205,4209.744,4173.333,4249.744,16220.0,0,1,rest
1774524999.5007,116,4267.179,4303.077,4202.051,4163.077,4257.949,450.0,0,1,rest
1774524999.5086,117,4263.59,4296.41,4196.41,4152.821,4249.231,450.0,0,1,rest
1774524999.5164,118,4275.897,4281.026,4191.282,4168.205,4260.513,450.0,0,1,rest
1774524999.5244,119,4286.667,4281.026,4191.795,4181.538,4265.128,16220.0,0,1,rest
1774524999.5322,120,4281.538,4294.872,4195.897,4171.795,4254.872,450.0,0,1,rest
1774524999.5401,121,4275.897,4299.487,4196.41,4160.513,4262.564,450.0,0,1,rest
1774524999.5479,122,4271.795,4288.718,4191.795,4158.462,4274.359,450.0,0,1,rest
1774524999.5558,123,4255.385,4285.128,4187.179,4155.385,4262.564,16220.0,0,1,rest
1774524999.5637,124,4241.538,4300.513,4184.615,4161.026,4253.846,450.0,0,1,rest
1774524999.5716,125,4249.231,4290.769,4182.564,4168.205,4255.897,450.0,0,1,rest
1774524999.5795,126,4261.538,4263.59,4182.564,4164.615,4249.744,450.0,0,1,rest
1774524999.5873,127,4257.949,4272.821,4183.59,4162.051,4241.538,234.0,0,1,rest
1774524999.5952,0,4246.667,4303.077,4184.615,4165.641,4241.026,450.0,0,1,rest
1774524999.603,1,4249.744,4297.949,4192.821,4164.615,4245.641,450.0,0,1,rest
1774524999.6109,2,4269.231,4273.846,4201.538,4166.154,4265.128,16210.0,0,1,rest
1774524999.6187,3,4277.949,4275.897,4202.564,4172.308,4276.41,450.0,0,1,rest
1774524999.6267,4,4265.128,4287.179,4200.0,4160.0,4249.744,16227.0,0,1,rest
1774524999.6345,5,4252.821,4292.821,4194.359,4148.205,4223.59,450.0,0,1,rest
1774524999.6424,6,4249.744,4295.897,4181.538,4147.692,4218.462,16204.0,0,1,rest
1774524999.6502,7,4253.846,4290.256,4177.436,4142.564,4208.718,450.0,0,1,rest
1774524999.6581,8,4264.615,4290.256,4191.795,4146.154,4211.282,450.0,0,1,rest
1774524999.6659,9,4269.744,4285.128,4197.949,4164.615,4234.359,16179.0,0,1,rest
1774524999.6738,10,4264.615,4259.487,4187.179,4176.41,4235.385,450.0,0,1,rest
1774524999.6817,11,4256.923,4254.872,4185.641,4169.744,4214.359,16221.0,0,1,rest
1774524999.6896,12,4257.949,4286.154,4193.846,4166.154,4224.103,450.0,0,1,rest
1774524999.6974,13,4265.641,4301.026,4188.205,4168.205,4245.641,450.0,0,1,rest
1774524999.7053,14,4263.59,4289.231,4174.872,4165.128,4234.359,450.0,0,1,rest
1774524999.7132,15,4259.487,4280.0,4173.846,4160.513,4223.077,16221.0,0,1,rest
1774524999.721,16,4269.744,4279.487,4183.59,4164.103,4233.333,0.0,0,1,rest
1774524999.729,17,4274.359,4277.949,4195.897,4175.385,4234.872,0.0,0,1,rest
1774524999.7368,18,4260.513,4261.538,4194.359,4170.256,4228.205,0.0,0,1,rest
1774524999.7447,19,4252.308,4237.949,4184.103,4153.333,4224.103,0.0,0,1,rest
1774524999.7525,20,4257.436,4246.667,4187.692,4151.282,4213.846,0.0,0,1,rest
1774524999.7604,21,4264.103,4275.897,4196.41,4164.103,4218.974,0.0,0,1,rest
1774524999.7682,22,4258.974,4282.051,4186.154,4165.641,4231.795,0.0,0,1,rest
1774524999.7761,23,4242.051,4269.744,4160.0,4149.231,4212.308,0.0,0,1,rest
1774524999.784,24,4245.128,4276.923,4159.487,4147.179,4193.333,0.0,0,1,rest
1774524999.7919,25,4265.641,4292.308,4179.487,4173.846,4207.692,0.0,0,1,rest
1774524999.7997,26,4268.718,4277.949,4181.538,4192.308,4224.103,0.0,0,1,rest
1774524999.8076,27,4257.949,4261.538,4173.333,4177.949,4234.872,0.0,0,1,rest
1774524999.8154,28,4253.846,4271.795,4177.436,4158.462,4233.846,0.0,0,1,rest
1774524999.8232,29,4242.564,4269.231,4185.128,4149.744,4216.923,0.0,0,1,rest
1774524999.8311,30,4227.179,4241.026,4183.59,4146.154,4214.872,0.0,0,1,rest
1774524999.8391,31,4230.769,4246.154,4182.564,4143.077,4224.615,0.0,0,1,rest
1774524999.8469,32,4244.103,4286.667,4182.051,4151.795,4216.41,0.0,0,1,rest
1774524999.8548,33,4244.615,4297.949,4177.949,4164.615,4212.308,0.0,0,1,rest
1774524999.8627,34,4237.436,4289.231,4172.308,4158.462,4231.282,0.0,0,1,rest
1774524999.8705,35,4242.051,4276.41,4163.077,4142.564,4235.385,0.0,0,1,rest
1774524999.8784,36,4253.333,4265.128,4157.436,4133.333,4218.974,0.0,0,1,rest
1774524999.8863,37,4258.462,4280.0,4160.513,4130.769,4210.769,0.0,0,1,rest
1774524999.8941,38,4259.487,4291.795,4167.692,4140.513,4216.41,0.0,0,1,rest
1774524999.902,39,4257.436,4272.308,4171.795,4153.333,4219.487,0.0,0,1,rest
1774524999.9098,40,4254.359,4264.615,4178.974,4149.744,4217.436,0.0,0,1,rest
1774524999.9177,41,4257.436,4273.846,4185.128,4151.795,4232.821,0.0,0,1,rest
1774524999.9255,42,4257.949,4265.641,4180.513,4162.564,4247.179,0.0,0,1,rest
1774524999.9334,43,4253.333,4262.564,4171.795,4144.615,4224.615,0.0,0,1,rest
1774524999.9413,44,4254.359,4276.923,4170.256,4126.154,4200.0,0.0,0,1,rest
1774524999.9492,45,4250.769,4288.205,4170.769,4131.795,4197.436,0.0,0,1,rest
1774524999.9571,46,4238.974,4280.513,4162.051,4131.282,4190.256,0.0,0,1,rest
1774524999.9649,47,4233.333,4253.333,4150.256,4126.154,4181.538,0.0,0,1,rest
1774524999.9727,48,4226.154,4257.436,4147.179,4130.769,4184.615,0.0,0,1,rest
1774524999.9806,49,4216.923,4289.231,4153.846,4129.744,4193.333,0.0,0,1,rest
1774524999.9885,50,4221.026,4278.462,4162.564,4137.436,4209.744,0.0,0,1,rest
1774524999.9964,51,4237.949,4254.872,4163.077,4157.949,4217.949,0.0,0,1,rest
1774525000.0043,52,4245.128,4269.744,4157.436,4151.795,4200.0,0.0,0,1,rest
1774525000.0122,53,4228.205,4271.795,4153.333,4131.282,4181.538,0.0,0,1,rest
1774525000.02,54,4215.385,4253.333,4163.077,4134.359,4199.487,0.0,0,1,rest
1774525000.0278,55,4238.462,4269.744,4164.615,4149.231,4239.487,0.0,0,1,rest
1774525000.0357,56,4265.641,4297.436,4156.41,4150.256,4246.667,0.0,0,1,rest
1774525000.0436,57,4249.231,4293.846,4158.462,4140.0,4207.692,0.0,0,1,rest
1774525000.0515,58,4221.026,4273.333,4163.59,4138.974,4178.974,0.0,0,1,rest
1774525000.0593,59,4222.564,4267.179,4157.949,4149.744,4185.641,0.0,0,1,rest
1774525000.0672,60,4228.205,4281.538,4141.538,4141.538,4182.051,0.0,0,1,rest
1774525000.075,61,4224.615,4274.359,4135.385,4124.103,4160.0,0.0,0,1,rest
1774525000.0829,62,4226.154,4252.308,4145.641,4133.333,4153.846,0.0,0,1,rest
1774525000.0907,63,4230.256,4272.308,4157.436,4151.282,4171.795,0.0,0,1,rest
1774525000.0987,64,4239.487,4302.051,4159.487,4158.462,4194.359,450.0,0,1,rest
1774525000.1065,65,4244.103,4290.769,4156.41,4162.564,4197.949,450.0,0,1,rest
1774525000.1144,66,4229.744,4268.205,4151.282,4153.846,4185.128,16222.0,0,1,rest
1774525000.1222,67,4214.872,4270.769,4150.769,4147.179,4186.154,450.0,0,1,rest
1774525000.1301,68,4231.795,4289.744,4167.692,4174.872,4205.641,16214.0,0,1,rest
1774525000.138,69,4253.333,4296.41,4183.077,4191.795,4204.103,450.0,0,1,rest
1774525000.1459,70,4245.128,4267.692,4183.077,4164.103,4180.513,16211.0,0,1,rest
1774525000.1537,71,4212.821,4246.154,4174.359,4140.0,4171.282,450.0,0,1,rest
1774525000.1616,72,4192.821,4271.282,4161.538,4142.564,4170.256,450.0,0,1,rest
1774525000.1695,73,4211.795,4293.333,4162.051,4149.744,4172.308,16193.0,0,1,rest
1774525000.1773,74,4231.795,4277.949,4171.282,4155.385,4197.949,450.0,0,1,rest
1774525000.1852,75,4223.59,4261.026,4168.205,4164.615,4222.051,16210.0,0,1,rest
1774525000.1931,76,4225.513,4262.756,4169.679,4163.974,4223.526,450.0,0,1,rest
1774525000.201,77,4227.436,4264.487,4171.154,4163.333,4225.0,450.0,0,1,rest
1774525000.2088,78,4229.359,4266.218,4172.628,4162.692,4226.474,450.0,0,1,rest
1774525000.2166,79,4231.282,4267.949,4174.103,4162.051,4227.949,16221.0,0,1,rest
1774525000.2244,80,4233.205,4269.679,4175.577,4161.41,4229.423,16210.0,0,1,rest
1774525000.2322,81,4235.128,4271.41,4177.051,4160.769,4230.897,16210.0,0,1,rest
1774525000.24,82,4237.051,4273.141,4178.526,4160.128,4232.372,16210.0,0,1,rest
1774525000.2479,83,4238.974,4274.872,4180.0,4159.487,4233.846,16210.0,0,1,rest
1774525000.2557,84,4248.205,4269.744,4170.769,4175.385,4251.795,450.0,0,1,rest
1774525000.2635,85,4250.769,4258.462,4160.0,4170.769,4249.744,450.0,0,1,rest
1774525000.2712,86,4237.436,4264.103,4158.974,4142.564,4213.333,450.0,0,1,rest
1774525000.279,87,4217.436,4277.436,4160.513,4135.897,4191.795,16210.0,0,1,rest
1774525000.2867,88,4214.872,4283.59,4160.513,4153.846,4203.59,450.0,0,1,rest
1774525000.2945,89,4220.0,4290.256,4167.179,4149.231,4205.641,450.0,0,1,rest
1774525000.3023,90,4226.154,4295.897,4180.0,4140.513,4195.897,450.0,0,1,rest
1774525000.3101,91,4241.026,4293.333,4190.256,4155.385,4202.051,16210.0,0,1,rest
1774525000.3178,92,4252.821,4297.949,4189.744,4166.154,4220.0,450.0,0,1,rest
1774525000.3256,93,4250.256,4290.769,4180.0,4163.59,4225.128,450.0,0,1,rest
1774525000.3333,94,4244.615,4272.821,4171.795,4165.128,4214.872,450.0,0,1,rest
1774525000.3411,95,4246.154,4275.897,4166.667,4168.205,4219.487,16210.0,0,1,rest
1774525000.3488,96,4242.564,4288.205,4156.41,4161.538,4239.487,450.0,0,1,rest
1774525000.3566,97,4231.282,4289.744,4151.282,4162.564,4238.974,450.0,0,1,rest
1774525000.3644,98,4224.615,4285.128,4161.538,4177.436,4216.41,450.0,0,1,rest
1774525000.3721,99,4234.359,4284.615,4177.949,4183.077,4210.769,16210.0,0,1,rest
1774525000.3799,100,4246.154,4296.923,4187.692,4178.974,4228.205,450.0,0,1,rest
1774525000.3876,101,4245.641,4307.179,4185.128,4181.538,4241.026,450.0,0,1,rest
1774525000.3954,102,4246.154,4301.538,4173.846,4188.205,4227.692,450.0,0,1,rest
1774525000.4031,103,4243.59,4302.564,4164.615,4177.436,4201.026,16210.0,0,1,rest
1774525000.411,104,4231.282,4303.59,4158.974,4169.231,4191.795,450.0,0,1,rest
1774525000.4187,105,4234.359,4283.59,4156.923,4187.179,4196.41,450.0,0,1,rest
1774525000.4265,106,4253.333,4288.718,4162.564,4191.282,4200.0,450.0,0,1,rest
1774525000.4342,107,4245.641,4305.128,4174.359,4167.692,4184.103,16210.0,0,1,rest
1774525000.442,108,4224.615,4295.897,4181.026,4165.128,4167.692,450.0,0,1,rest
1774525000.4497,109,4248.205,4300.513,4175.385,4189.744,4188.205,450.0,0,1,rest
1774525000.4575,110,4281.538,4290.769,4166.667,4194.359,4202.051,450.0,0,1,rest
1774525000.4653,111,4264.615,4258.462,4163.59,4178.974,4175.897,16210.0,0,1,rest
1774525000.4731,112,4236.41,4281.026,4163.59,4173.333,4161.538,450.0,0,1,rest
1774525000.4808,113,4237.436,4309.744,4166.154,4178.974,4171.795,450.0,0,1,rest
1774525000.4886,114,4238.462,4292.821,4165.128,4185.641,4165.128,450.0,0,1,rest
1774525000.4963,115,4232.821,4298.462,4162.051,4178.462,4151.282,16210.0,0,1,rest
1774525000.5041,116,4241.538,4314.359,4163.59,4160.0,4156.41,450.0,0,1,rest
1774525000.5119,117,4253.333,4302.564,4168.718,4165.641,4175.897,450.0,0,1,rest
1774525000.5197,118,4257.949,4308.718,4172.821,4188.718,4190.769,450.0,0,1,rest
1774525000.5275,119,4263.077,4304.615,4169.231,4184.615,4180.513,16210.0,0,1,rest
1774525000.5352,120,4265.128,4276.923,4165.128,4169.744,4166.154,450.0,0,1,rest
1774525000.5429,121,4260.513,4289.744,4170.769,4183.077,4170.256,450.0,0,1,rest
1774525000.5507,122,4254.872,4305.641,4182.051,4188.718,4181.026,450.0,0,1,rest
1774525000.5585,123,4252.821,4284.103,4181.538,4166.667,4190.256,16210.0,0,1,rest
1774525000.5664,124,4260.0,4275.897,4174.359,4163.077,4194.872,450.0,0,1,rest
1774525000.5741,125,4267.692,4294.359,4175.385,4187.692,4188.718,450.0,0,1,rest
1774525000.5818,126,4262.051,4293.846,4172.821,4184.615,4177.949,450.0,0,1,rest
1774525000.5896,127,4256.41,4270.256,4167.179,4158.974,4173.333,234.0,0,1,rest
1774525000.5973,0,4260.0,4271.282,4171.795,4158.462,4178.462,450.0,0,1,rest
1774525000.6051,1,4252.821,4286.667,4176.923,4170.769,4173.333,450.0,0,1,rest
1774525000.6128,2,4232.308,4286.154,4176.41,4168.205,4165.128,16228.0,0,1,rest
1774525000.6207,3,4227.179,4293.846,4178.974,4160.513,4168.718,450.0,0,1,rest
1774525000.6285,4,4232.308,4300.513,4184.103,4164.103,4167.179,16219.0,0,1,rest
1774525000.6362,5,4232.308,4282.564,4184.103,4178.462,4169.231,450.0,0,1,rest
1774525000.6439,6,4236.41,4279.487,4178.462,4182.051,4186.154,16204.0,0,1,rest
1774525000.6517,7,4237.949,4300.0,4170.256,4167.179,4190.256,450.0,0,1,rest
1774525000.6594,8,4230.256,4298.462,4169.744,4167.179,4177.949,450.0,0,1,rest
1774525000.6671,9,4233.333,4284.103,4180.0,4182.051,4169.744,16195.0,0,1,rest
1774525000.675,10,4243.59,4269.231,4184.615,4173.846,4153.333,450.0,0,1,rest
1774525000.6828,11,4237.436,4266.667,4183.077,4160.0,4138.462,16209.0,0,1,rest
1774525000.6905,12,4231.282,4299.487,4182.051,4165.641,4147.692,450.0,0,1,rest
1774525000.6983,13,4234.872,4320.0,4176.923,4166.154,4150.769,450.0,0,1,rest
1774525000.706,14,4234.872,4285.641,4175.897,4154.359,4131.795,450.0,0,1,rest
1774525000.7138,15,4232.308,4264.103,4176.923,4157.949,4122.564,16209.0,0,1,rest
1774525000.7215,16,4228.718,4288.718,4173.333,4163.077,4125.641,0.0,0,1,rest
1774525000.7294,17,4222.564,4288.205,4177.949,4149.231,4121.538,0.0,0,1,rest
1774525000.7371,18,4220.0,4269.231,4178.462,4140.513,4123.59,0.0,0,1,rest
1774525000.7448,19,4229.744,4291.795,4168.718,4156.41,4140.513,0.0,0,1,rest
1774525000.7526,20,4241.026,4309.744,4169.231,4170.769,4152.308,0.0,0,1,rest
1774525000.7603,21,4239.487,4272.821,4166.667,4156.923,4151.282,0.0,0,1,rest
1774525000.7681,22,4229.231,4249.231,4155.385,4152.308,4142.564,0.0,0,1,rest
1774525000.7759,23,4221.026,4284.103,4159.487,4168.205,4129.231,0.0,0,1,rest
1774525000.7837,24,4215.897,4303.077,4162.564,4161.026,4122.051,0.0,0,1,rest
1774525000.7914,25,4206.154,4266.667,4153.333,4140.0,4121.538,0.0,0,1,rest
1774525000.7992,26,4200.513,4243.077,4156.923,4141.026,4115.385,0.0,0,1,rest
1774525000.8069,27,4216.41,4277.436,4167.179,4161.538,4121.538,0.0,0,1,rest
1774525000.8147,28,4230.769,4305.128,4173.333,4175.385,4132.821,0.0,0,1,rest
1774525000.8224,29,4220.0,4289.744,4181.538,4169.231,4134.359,0.0,0,1,rest
1774525000.8303,30,4217.436,4270.769,4175.385,4161.026,4140.0,0.0,0,1,rest
1774525000.838,31,4229.744,4267.692,4158.462,4171.795,4155.385,0.0,0,1,rest
1774525000.8458,32,4229.231,4287.692,4157.949,4180.0,4169.744,0.0,0,1,rest
1774525000.8535,33,4226.154,4307.179,4171.282,4169.231,4178.974,0.0,0,1,rest
1774525000.8613,34,4224.103,4290.769,4174.359,4157.436,4174.359,0.0,0,1,rest
1774525000.869,35,4209.231,4276.41,4165.641,4150.769,4155.385,0.0,0,1,rest
1774525000.8768,36,4214.359,4286.154,4165.641,4156.923,4151.795,0.0,0,1,rest
1774525000.8846,37,4238.462,4278.462,4175.897,4168.718,4152.821,0.0,0,1,rest
1774525000.8924,38,4235.385,4258.974,4174.359,4169.231,4136.923,0.0,0,1,rest
1774525000.9001,39,4222.051,4271.795,4159.487,4162.564,4129.231,0.0,0,1,rest
1774525000.9079,40,4223.077,4285.641,4151.282,4149.231,4145.128,0.0,0,1,rest
1774525000.9156,41,4225.128,4286.154,4150.769,4140.513,4176.41,0.0,0,1,rest
1774525000.9234,42,4223.077,4302.564,4149.231,4155.897,4193.333,0.0,0,1,rest
1774525000.9311,43,4223.077,4312.308,4146.154,4170.256,4181.538,0.0,0,1,rest
1774525000.9389,44,4225.641,4297.436,4146.667,4150.256,4171.282,0.0,0,1,rest
1774525000.9467,45,4224.103,4286.154,4151.282,4133.333,4185.128,0.0,0,1,rest
1774525000.9544,46,4225.128,4277.436,4156.923,4152.821,4201.026,0.0,0,1,rest
1774525000.9622,47,4233.846,4254.872,4165.128,4168.718,4211.795,0.0,0,1,rest
1774525000.9699,48,4237.949,4260.513,4181.026,4158.974,4232.308,0.0,0,1,rest
1774525000.9777,49,4232.308,4292.308,4196.41,4151.282,4247.179,0.0,0,1,rest
1774525000.9854,50,4230.769,4289.744,4197.949,4155.385,4232.821,0.0,0,1,rest
1774525000.9933,51,4231.795,4276.923,4183.59,4152.821,4208.205,0.0,0,1,rest
1774525001.001,52,4225.641,4290.256,4174.359,4148.205,4209.744,0.0,0,1,rest
1774525001.0088,53,4221.026,4286.667,4184.615,4147.179,4227.692,0.0,0,1,rest
1774525001.0165,54,4216.923,4262.051,4187.179,4150.769,4232.308,0.0,0,1,rest
1774525001.0243,55,4218.974,4253.333,4173.333,4163.59,4231.282,0.0,0,1,rest
1774525001.032,56,4226.667,4264.615,4171.282,4169.744,4233.333,0.0,0,1,rest
1774525001.0399,57,4216.923,4286.154,4178.974,4174.359,4222.564,0.0,0,1,rest
1774525001.0476,58,4214.359,4289.231,4172.821,4175.385,4208.718,0.0,0,1,rest
1774525001.0554,59,4234.359,4267.179,4169.231,4160.0,4217.436,0.0,0,1,rest
1774525001.0631,60,4238.974,4272.308,4172.821,4159.487,4231.282,0.0,0,1,rest
1774525001.0709,61,4226.154,4297.436,4167.692,4170.256,4222.564,0.0,0,1,rest
1774525001.0786,62,4218.974,4289.744,4161.026,4156.41,4218.974,0.0,0,1,rest
1774525001.0863,63,4217.436,4269.744,4166.154,4151.282,4246.154,0.0,0,1,rest
1774525001.0942,64,4220.0,4268.205,4176.41,4168.718,4247.179,450.0,0,1,rest
1774525001.102,65,4222.051,4271.795,4178.974,4166.667,4214.872,450.0,0,1,rest
1774525001.1097,66,4214.359,4278.974,4172.308,4154.872,4212.821,16226.0,0,1,rest
1774525001.1174,67,4216.41,4283.077,4164.615,4152.308,4227.179,450.0,0,1,rest
1774525001.1252,68,4227.179,4285.128,4164.103,4157.949,4224.615,16228.0,0,1,rest
1774525001.1329,69,4225.641,4290.256,4165.641,4168.205,4231.282,450.0,0,1,rest
1774525001.1407,70,4227.179,4284.103,4163.077,4158.462,4245.128,16196.0,0,1,rest
1774525001.1485,71,4246.667,4280.513,4166.667,4147.179,4246.154,450.0,0,1,rest
1774525001.1563,72,4263.59,4280.513,4178.462,4163.077,4250.769,450.0,0,1,rest
1774525001.164,73,4262.564,4272.308,4188.718,4180.0,4267.692,16188.0,0,1,rest
1774525001.1718,74,4248.718,4277.436,4187.179,4182.564,4269.231,450.0,0,1,rest
1774525001.1795,75,4247.692,4300.0,4177.949,4178.462,4257.949,16212.0,0,1,rest
1774525001.1873,76,4269.231,4314.872,4182.051,4167.692,4260.0,450.0,0,1,rest
1774525001.195,77,4277.949,4303.077,4191.795,4161.026,4260.0,450.0,0,1,rest
1774525001.2029,78,4255.897,4272.308,4181.026,4156.923,4238.974,450.0,0,1,rest
1774525001.2106,79,4239.487,4260.513,4164.615,4147.179,4227.692,16212.0,0,1,rest
1774525001.2184,80,4247.179,4274.872,4169.231,4145.641,4236.923,450.0,0,1,rest
1774525001.2261,81,4251.282,4275.385,4178.462,4158.974,4230.256,450.0,0,1,rest
1774525001.2339,82,4240.513,4266.154,4170.769,4172.308,4230.256,450.0,0,1,rest
1774525001.2416,83,4234.359,4272.308,4162.564,4167.179,4257.436,16212.0,0,1,rest
1774525001.2493,84,4238.462,4278.462,4165.641,4147.692,4264.615,450.0,0,1,rest
1774525001.2572,85,4255.385,4289.744,4180.513,4147.692,4255.897,450.0,0,1,rest
1774525001.2649,86,4267.179,4302.564,4197.949,4160.513,4267.692,450.0,0,1,rest
1774525001.2727,87,4258.462,4289.231,4189.744,4151.282,4276.923,16212.0,0,1,rest
1774525001.2804,88,4247.692,4275.385,4172.308,4145.641,4260.513,450.0,0,1,rest
1774525001.2882,89,4250.769,4270.769,4175.897,4160.0,4255.897,450.0,0,1,rest
1774525001.2959,90,4256.41,4266.154,4183.077,4151.795,4267.692,450.0,0,1,rest
1774525001.3038,91,4248.205,4284.615,4180.513,4132.821,4262.564,16212.0,0,1,rest
1774525001.3115,92,4245.641,4303.077,4178.974,4143.077,4260.513,450.0,0,1,rest
1774525001.3193,93,4253.846,4280.513,4181.538,4153.333,4274.359,450.0,0,1,rest
1774525001.3271,94,4252.821,4256.923,4178.462,4145.641,4275.897,450.0,0,1,rest
1774525001.3348,95,4243.077,4270.769,4171.282,4157.436,4264.103,16212.0,0,1,rest
1774525001.3425,96,4240.0,4289.231,4166.667,4171.282,4271.795,450.0,0,1,rest
1774525001.3503,97,4241.538,4278.462,4156.923,4163.077,4288.205,450.0,0,1,rest
1774525001.3581,98,4231.282,4249.744,4144.103,4154.872,4271.282,450.0,0,1,rest
1774525001.3659,99,4215.385,4255.897,4137.436,4147.179,4247.692,16212.0,0,1,rest
1774525001.3736,100,4209.231,4282.051,4138.974,4130.769,4250.256,450.0,0,1,rest
1774525001.3813,101,4216.41,4272.308,4153.846,4133.333,4249.744,450.0,0,1,rest
1774525001.3891,102,4229.231,4270.256,4176.41,4161.538,4243.59,450.0,0,1,rest
1774525001.3968,103,4237.949,4300.0,4183.077,4171.282,4259.487,16212.0,0,1,rest
1774525001.4046,104,4248.718,4298.462,4180.0,4162.051,4282.051,450.0,0,1,rest
1774525001.4124,105,4251.795,4260.0,4178.974,4165.128,4286.667,450.0,0,1,rest
1774525001.4202,106,4240.513,4245.128,4170.769,4172.821,4276.923,450.0,0,1,rest
1774525001.428,107,4233.333,4266.667,4169.231,4162.564,4266.154,16212.0,0,1,rest
1774525001.4357,108,4228.205,4278.974,4177.436,4152.821,4268.205,450.0,0,1,rest
1774525001.4435,109,4213.846,4263.077,4171.795,4162.051,4275.897,450.0,0,1,rest
1774525001.4512,110,4209.744,4249.744,4161.026,4161.026,4271.795,450.0,0,1,rest
1774525001.459,111,4223.077,4267.179,4157.949,4157.949,4269.231,16212.0,0,1,rest
1774525001.4668,112,4225.128,4288.718,4155.385,4168.205,4274.359,450.0,0,1,rest
1774525001.4745,113,4222.051,4287.179,4158.462,4173.333,4270.769,450.0,0,1,rest
1774525001.4823,114,4225.641,4278.462,4166.154,4164.615,4265.128,450.0,0,1,rest
1774525001.49,115,4221.538,4270.769,4171.795,4155.897,4268.205,16212.0,0,1,rest
1774525001.4978,116,4218.974,4272.308,4177.436,4161.026,4273.333,450.0,0,1,rest
1774525001.5055,117,4230.256,4291.795,4177.436,4172.308,4275.385,450.0,0,1,rest
1774525001.5133,118,4235.385,4292.821,4166.667,4168.205,4266.667,450.0,0,1,rest
1774525001.5211,119,4224.615,4263.59,4156.41,4150.256,4251.282,16212.0,0,1,rest
1774525001.5288,120,4214.872,4256.41,4149.744,4150.256,4241.026,450.0,0,1,rest
1774525001.5366,121,4218.462,4275.897,4147.179,4162.564,4243.59,450.0,0,1,rest
1774525001.5444,122,4236.41,4265.128,4158.462,4170.256,4255.385,450.0,0,1,rest
1774525001.5521,123,4251.795,4246.154,4174.359,4183.59,4268.205,16212.0,0,1,rest
1774525001.5599,124,4250.256,4269.744,4174.359,4185.641,4274.359,450.0,0,1,rest
1774525001.5677,125,4244.615,4288.205,4164.615,4163.077,4263.077,450.0,0,1,rest
1774525001.5754,126,4245.128,4284.103,4168.718,4151.795,4244.103,450.0,0,1,rest
1774525001.5832,127,4246.154,4287.692,4179.487,4155.897,4240.0,234.0,0,1,rest
1774525001.591,0,4243.077,4295.897,4180.0,4148.205,4245.641,450.0,0,1,rest
1774525001.5987,1,4245.641,4297.949,4182.051,4140.0,4248.718,450.0,0,1,rest
1774525001.6065,2,4241.026,4298.462,4185.128,4149.744,4241.538,16231.0,0,1,rest
1774525001.6142,3,4230.256,4304.103,4180.513,4158.974,4229.744,450.0,0,1,rest
1774525001.6221,4,4230.256,4300.513,4183.59,4154.359,4226.154,16220.0,0,1,rest
1774525001.6298,5,4228.205,4275.897,4189.231,4148.718,4221.538,450.0,0,1,rest
1774525001.6375,6,4221.538,4264.615,4185.128,4149.231,4212.821,16193.0,0,1,rest
1774525001.6453,7,4239.487,4286.667,4183.077,4155.897,4222.564,450.0,0,1,rest
1774525001.6531,8,4265.641,4294.359,4190.256,4170.769,4242.051,450.0,0,1,rest
1774525001.6608,9,4254.872,4267.692,4184.615,4176.41,4245.128,16195.0,0,1,rest
1774525001.6685,10,4235.897,4271.795,4170.256,4160.513,4237.949,450.0,0,1,rest
1774525001.6764,11,4233.846,4303.59,4166.154,4148.718,4220.0,16220.0,0,1,rest
1774525001.6841,12,4226.667,4307.692,4166.667,4155.385,4198.974,450.0,0,1,rest
1774525001.6919,13,4218.974,4288.205,4165.128,4155.385,4205.128,450.0,0,1,rest
1774525001.6996,14,4219.487,4276.923,4163.59,4147.692,4226.154,450.0,0,1,rest
1774525001.7074,15,4224.103,4284.103,4164.615,4149.744,4234.359,16220.0,0,1,rest
1774525001.7151,16,4228.205,4286.154,4165.128,4150.256,4228.205,0.0,0,1,rest
1774525001.7229,17,4230.769,4265.641,4163.59,4151.795,4214.872,0.0,0,1,rest
1774525001.7307,18,4222.051,4258.462,4154.872,4156.923,4211.795,0.0,0,1,rest
1774525001.7385,19,4214.872,4290.256,4153.846,4158.462,4239.487,0.0,0,1,rest
1774525001.7462,20,4223.59,4308.205,4167.179,4158.974,4264.615,0.0,0,1,rest
1774525001.754,21,4227.692,4280.0,4168.718,4164.103,4253.333,0.0,0,1,rest
1774525001.7617,22,4225.641,4269.744,4169.744,4167.692,4246.667,0.0,0,1,rest
1774525001.7695,23,4220.0,4278.974,4178.974,4162.051,4263.59,0.0,0,1,rest
1774525001.7772,24,4211.795,4272.821,4175.385,4171.795,4265.128,0.0,0,1,rest
1774525001.7851,25,4214.872,4280.0,4171.795,4192.821,4256.41,0.0,0,1,rest
1774525001.7928,26,4220.0,4284.103,4180.0,4185.641,4264.615,0.0,0,1,rest
1774525001.8005,27,4209.744,4262.564,4180.513,4158.974,4258.462,0.0,0,1,rest
1774525001.8083,28,4208.205,4268.205,4179.487,4157.436,4245.641,0.0,0,1,rest
1774525001.8161,29,4227.692,4289.744,4183.077,4178.462,4264.615,0.0,0,1,rest
1774525001.8238,30,4226.154,4267.179,4177.436,4179.487,4261.538,0.0,0,1,rest
1774525001.8317,31,4207.179,4263.59,4169.744,4167.692,4227.692,0.0,0,1,rest
1774525001.8394,32,4214.872,4297.949,4172.308,4181.026,4244.103,0.0,0,1,rest
1774525001.8471,33,4228.718,4281.538,4173.333,4193.846,4277.436,0.0,0,1,rest
1774525001.8549,34,4221.026,4256.41,4157.436,4167.692,4253.333,0.0,0,1,rest
1774525001.8626,35,4215.385,4277.949,4144.615,4148.205,4238.974,0.0,0,1,rest
1774525001.8704,36,4222.051,4283.59,4155.897,4164.615,4268.205,0.0,0,1,rest
1774525001.8781,37,4216.923,4258.462,4161.026,4170.256,4261.538,0.0,0,1,rest
1774525001.886,38,4211.282,4265.128,4151.795,4161.538,4227.179,0.0,0,1,rest
1774525001.8937,39,4220.0,4298.974,4156.923,4164.615,4229.744,0.0,0,1,rest
1774525001.9015,40,4224.103,4293.333,4165.641,4179.487,4243.077,0.0,0,1,rest
1774525001.9092,41,4211.282,4263.077,4162.564,4179.487,4229.744,0.0,0,1,rest
1774525001.917,42,4201.026,4273.846,4163.077,4158.462,4230.769,0.0,0,1,rest
1774525001.9247,43,4207.179,4305.128,4160.0,4146.154,4256.41,0.0,0,1,rest
1774525001.9325,44,4210.769,4286.667,4150.256,4154.872,4242.051,0.0,0,1,rest
1774525001.9403,45,4206.667,4252.821,4153.333,4163.59,4210.256,0.0,0,1,rest
1774525001.9481,46,4215.897,4269.231,4162.564,4167.692,4232.308,0.0,0,1,rest
1774525001.9558,47,4229.231,4292.821,4162.564,4171.282,4263.077,0.0,0,1,rest
1774525001.9636,48,4222.051,4288.205,4156.41,4163.59,4244.103,0.0,0,1,rest
1774525001.9713,49,4211.795,4284.103,4152.308,4148.718,4213.333,0.0,0,1,rest
1774525001.979,50,4213.846,4273.846,4154.359,4144.103,4205.128,0.0,0,1,rest
1774525001.9868,51,4214.872,4263.59,4154.359,4147.692,4198.462,0.0,0,1,rest
1774525001.9946,52,4217.949,4281.026,4158.974,4160.513,4188.205,0.0,0,1,rest
1774525002.0024,53,4225.128,4284.615,4171.282,4166.154,4191.795,0.0,0,1,rest
1774525002.0101,54,4228.205,4268.205,4172.308,4154.359,4209.231,0.0,0,1,rest
1774525002.0179,55,4224.103,4286.154,4169.744,4141.026,4225.128,0.0,0,1,rest
1774525002.0257,56,4217.436,4310.769,4174.872,4141.538,4222.564,0.0,0,1,rest
1774525002.0334,57,4220.513,4295.897,4175.897,4151.795,4209.744,0.0,0,1,rest
1774525002.0411,58,4233.846,4273.846,4170.256,4151.282,4196.923,0.0,0,1,rest
1774525002.049,59,4230.769,4264.103,4162.564,4150.769,4193.846,0.0,0,1,rest
1774525002.0567,60,4213.333,4263.077,4151.795,4165.641,4189.231,0.0,0,1,rest
1774525002.0645,61,4203.077,4269.744,4142.051,4163.077,4170.769,0.0,0,1,rest
1774525002.0722,62,4200.513,4272.308,4136.41,4141.026,4171.795,0.0,0,1,rest
1774525002.08,63,4209.744,4273.846,4132.308,4140.0,4195.385,0.0,0,1,rest
1774525002.0877,64,4218.462,4275.897,4139.487,4160.0,4191.282,450.0,0,1,rest
1774525002.0956,65,4211.795,4276.41,4145.641,4164.615,4172.821,450.0,0,1,rest
1774525002.1033,66,4215.385,4270.256,4142.051,4156.41,4191.282,16228.0,1,1,motor_imagery_right_hand
1774525002.1111,67,4234.872,4257.436,4146.154,4153.846,4221.538,450.0,1,1,motor_imagery_right_hand
1774525002.1189,68,4234.359,4267.179,4152.821,4155.385,4215.897,16229.0,1,1,motor_imagery_right_hand
1774525002.1266,69,4224.615,4288.718,4152.308,4149.744,4197.436,450.0,1,1,motor_imagery_right_hand
1774525002.1343,70,4234.872,4280.513,4160.0,4143.077,4196.41,16193.0,1,1,motor_imagery_right_hand
1774525002.142,71,4248.205,4279.487,4176.41,4150.769,4203.077,450.0,1,1,motor_imagery_right_hand
1774525002.1499,72,4248.205,4297.949,4174.872,4155.385,4206.667,450.0,1,1,motor_imagery_right_hand
1774525002.1577,73,4239.487,4277.436,4166.667,4140.513,4198.974,16196.0,1,1,motor_imagery_right_hand
1774525002.1654,74,4232.308,4272.821,4171.282,4152.308,4185.641,450.0,1,1,motor_imagery_right_hand
1774525002.1732,75,4237.436,4305.641,4179.487,4178.462,4189.231,16220.0,1,1,motor_imagery_right_hand
1774525002.1809,76,4244.615,4289.231,4177.949,4169.231,4191.795,450.0,1,1,motor_imagery_right_hand
1774525002.1887,77,4241.026,4261.538,4164.615,4154.359,4180.513,450.0,1,1,motor_imagery_right_hand
1774525002.1964,78,4237.949,4284.103,4155.385,4160.513,4190.256,450.0,1,1,motor_imagery_right_hand
1774525002.2043,79,4248.205,4295.385,4161.026,4163.077,4208.205,16220.0,1,1,motor_imagery_right_hand
1774525002.212,80,4260.513,4288.718,4167.692,4165.128,4193.333,450.0,1,1,motor_imagery_right_hand
1774525002.2197,81,4263.077,4308.718,4166.154,4176.923,4187.179,450.0,1,1,motor_imagery_right_hand
1774525002.2275,82,4260.513,4310.769,4170.256,4171.282,4211.795,450.0,1,1,motor_imagery_right_hand
1774525002.2353,83,4264.103,4280.513,4174.872,4157.949,4216.923,16220.0,1,1,motor_imagery_right_hand
1774525002.243,84,4267.179,4265.641,4171.282,4162.051,4200.0,450.0,1,1,motor_imagery_right_hand
1774525002.2507,85,4257.436,4261.026,4168.205,4156.923,4192.308,450.0,1,1,motor_imagery_right_hand
1774525002.2586,86,4250.256,4260.0,4169.231,4149.231,4189.231,450.0,1,1,motor_imagery_right_hand
1774525002.2663,87,4248.205,4267.692,4174.359,4152.821,4190.256,16220.0,1,1,motor_imagery_right_hand
1774525002.2741,88,4244.615,4276.923,4181.026,4144.615,4207.692,450.0,1,1,motor_imagery_right_hand
1774525002.2819,89,4257.436,4294.359,4187.179,4138.974,4221.026,450.0,1,1,motor_imagery_right_hand
1774525002.2896,90,4273.846,4308.718,4191.795,4153.846,4201.538,450.0,1,1,motor_imagery_right_hand
1774525002.2973,91,4262.051,4284.103,4191.795,4163.077,4186.154,16220.0,1,1,motor_imagery_right_hand
1774525002.3051,92,4242.564,4258.974,4189.231,4165.128,4206.154,450.0,1,1,motor_imagery_right_hand
1774525002.3129,93,4245.128,4268.718,4182.564,4166.667,4217.949,450.0,1,1,motor_imagery_right_hand
1774525002.3207,94,4245.128,4269.744,4168.205,4154.872,4200.0,450.0,1,1,motor_imagery_right_hand
1774525002.3284,95,4233.846,4250.769,4157.949,4154.872,4200.0,16220.0,1,1,motor_imagery_right_hand
1774525002.3362,96,4228.718,4261.538,4163.077,4168.205,4225.641,450.0,1,1,motor_imagery_right_hand
1774525002.3439,97,4227.692,4290.769,4166.667,4157.949,4225.641,450.0,1,1,motor_imagery_right_hand
1774525002.3517,98,4220.513,4285.128,4168.205,4145.128,4188.205,450.0,1,1,motor_imagery_right_hand
1774525002.3595,99,4214.872,4275.385,4173.846,4158.974,4166.154,16220.0,1,1,motor_imagery_right_hand
1774525002.3673,100,4225.641,4284.615,4176.41,4167.179,4182.564,450.0,1,1,motor_imagery_right_hand
1774525002.375,101,4231.282,4274.872,4162.564,4157.949,4193.333,450.0,1,1,motor_imagery_right_hand
1774525002.3828,102,4216.41,4252.821,4146.154,4160.0,4177.949,450.0,1,1,motor_imagery_right_hand
1774525002.3905,103,4204.103,4263.59,4147.692,4158.974,4168.205,16220.0,1,1,motor_imagery_right_hand
1774525002.3983,104,4201.538,4292.821,4148.205,4143.077,4167.692,450.0,1,1,motor_imagery_right_hand
1774525002.406,105,4196.923,4293.333,4139.487,4138.974,4156.923,450.0,1,1,motor_imagery_right_hand
1774525002.4138,106,4192.821,4266.667,4138.462,4145.128,4140.513,450.0,1,1,motor_imagery_right_hand
1774525002.4216,107,4195.897,4245.641,4144.615,4137.436,4127.179,16220.0,1,1,motor_imagery_right_hand
1774525002.4293,108,4200.0,4267.179,4149.231,4132.308,4125.128,450.0,1,1,motor_imagery_right_hand
1774525002.4371,109,4211.282,4300.0,4160.513,4154.359,4144.615,450.0,1,1,motor_imagery_right_hand
1774525002.4448,110,4228.205,4278.462,4172.821,4174.359,4169.744,450.0,1,1,motor_imagery_right_hand
1774525002.4526,111,4229.744,4247.692,4175.385,4173.333,4166.667,16220.0,1,1,motor_imagery_right_hand
1774525002.4603,112,4225.641,4272.821,4171.795,4162.051,4131.795,450.0,1,1,motor_imagery_right_hand
1774525002.4682,113,4227.179,4302.564,4163.077,4153.846,4110.769,450.0,1,1,motor_imagery_right_hand
1774525002.4759,114,4232.308,4295.897,4158.462,4160.513,4133.846,450.0,1,1,motor_imagery_right_hand
1774525002.4837,115,4234.872,4279.487,4158.462,4164.615,4155.385,16220.0,1,1,motor_imagery_right_hand
1774525002.4914,116,4235.897,4266.154,4151.795,4150.769,4138.462,450.0,1,1,motor_imagery_right_hand
1774525002.4992,117,4237.436,4266.154,4148.718,4148.718,4125.641,450.0,1,1,motor_imagery_right_hand
1774525002.5069,118,4239.487,4281.026,4159.487,4163.077,4135.385,450.0,1,1,motor_imagery_right_hand
1774525002.5147,119,4232.308,4264.615,4158.462,4160.0,4128.205,16220.0,1,1,motor_imagery_right_hand
1774525002.5225,120,4210.256,4238.974,4138.462,4149.744,4100.0,450.0,1,1,motor_imagery_right_hand
1774525002.5303,121,4201.538,4256.41,4131.282,4152.308,4094.359,450.0,1,1,motor_imagery_right_hand
1774525002.538,122,4211.282,4278.974,4138.462,4150.256,4110.769,450.0,1,1,motor_imagery_right_hand
1774525002.5458,123,4213.846,4284.615,4140.0,4146.154,4106.667,16220.0,1,1,motor_imagery_right_hand
1774525002.5535,124,4215.897,4288.718,4143.077,4152.308,4093.333,450.0,1,1,motor_imagery_right_hand
1774525002.5613,125,4220.513,4274.359,4148.205,4146.667,4106.154,450.0,1,1,motor_imagery_right_hand
1774525002.569,126,4217.949,4246.154,4135.897,4140.0,4128.205,450.0,1,1,motor_imagery_right_hand
1774525002.5768,127,4225.128,4253.846,4131.795,4152.821,4131.795,234.0,1,1,motor_imagery_right_hand
1774525002.5846,0,4234.872,4282.051,4152.821,4154.359,4121.026,450.0,1,1,motor_imagery_right_hand
1774525002.5923,1,4217.436,4272.821,4165.641,4133.846,4113.846,450.0,1,1,motor_imagery_right_hand
1774525002.6001,2,4209.744,4260.0,4166.154,4132.308,4114.872,16219.0,1,1,motor_imagery_right_hand
1774525002.6078,3,4229.231,4284.615,4174.872,4154.359,4125.128,450.0,1,1,motor_imagery_right_hand
1774525002.6156,4,4235.897,4301.026,4179.487,4152.821,4141.026,16227.0,1,1,motor_imagery_right_hand
1774525002.6234,5,4234.872,4271.282,4171.282,4146.667,4152.821,450.0,1,1,motor_imagery_right_hand
1774525002.6312,6,4246.154,4240.0,4171.282,4163.077,4156.923,16206.0,1,1,motor_imagery_right_hand
1774525002.6389,7,4251.795,4251.795,4178.462,4163.59,4155.897,450.0,1,1,motor_imagery_right_hand
1774525002.6467,8,4248.718,4288.718,4177.436,4148.718,4159.487,450.0,1,1,motor_imagery_right_hand
1774525002.6544,9,4254.359,4294.872,4173.846,4158.462,4160.0,16182.0,1,1,motor_imagery_right_hand
1774525002.6622,10,4257.949,4271.795,4174.359,4175.385,4152.308,450.0,1,1,motor_imagery_right_hand
1774525002.6699,11,4251.795,4270.256,4175.897,4170.769,4151.282,16209.0,1,1,motor_imagery_right_hand
1774525002.6778,12,4252.308,4276.923,4177.949,4170.256,4161.538,450.0,1,1,motor_imagery_right_hand
1774525002.6855,13,4263.59,4264.615,4187.692,4181.026,4171.795,450.0,1,1,motor_imagery_right_hand
1774525002.6932,14,4265.641,4263.077,4210.256,4186.667,4165.641,450.0,1,1,motor_imagery_right_hand
1774525002.701,15,4255.385,4270.769,4220.513,4192.308,4162.564,16209.0,1,1,motor_imagery_right_hand
1774525002.7088,16,4255.385,4262.051,4200.0,4189.744,4175.897,0.0,1,1,motor_imagery_right_hand
1774525002.7165,17,4254.872,4259.487,4184.615,4174.359,4182.564,0.0,1,1,motor_imagery_right_hand
1774525002.7243,18,4238.974,4256.41,4180.0,4164.103,4176.41,0.0,1,1,motor_imagery_right_hand
1774525002.7321,19,4231.795,4244.103,4167.692,4163.077,4164.615,0.0,1,1,motor_imagery_right_hand
1774525002.7398,20,4238.462,4257.949,4163.59,4165.128,4160.513,0.0,1,1,motor_imagery_right_hand
1774525002.7476,21,4245.128,4284.615,4179.487,4175.897,4173.333,0.0,1,1,motor_imagery_right_hand
1774525002.7554,22,4251.795,4276.41,4192.308,4180.0,4192.821,0.0,1,1,motor_imagery_right_hand
1774525002.7631,23,4255.897,4263.59,4195.385,4174.359,4197.949,0.0,1,1,motor_imagery_right_hand
1774525002.7708,24,4253.333,4285.641,4192.308,4177.949,4186.667,0.0,1,1,motor_imagery_right_hand
1774525002.7785,25,4252.821,4291.795,4185.128,4171.795,4184.103,0.0,1,1,motor_imagery_right_hand
1774525002.7864,26,4249.231,4271.282,4184.615,4152.821,4191.282,0.0,1,1,motor_imagery_right_hand
1774525002.7942,27,4249.744,4268.205,4188.718,4158.462,4195.385,0.0,1,1,motor_imagery_right_hand
1774525002.8019,28,4257.436,4274.359,4187.179,4173.846,4191.282,0.0,1,1,motor_imagery_right_hand
1774525002.8097,29,4251.282,4276.41,4175.897,4158.974,4192.821,0.0,1,1,motor_imagery_right_hand
1774525002.8174,30,4244.103,4273.333,4170.769,4159.487,4204.103,0.0,1,1,motor_imagery_right_hand
1774525002.8252,31,4259.487,4272.308,4178.974,4182.564,4214.872,0.0,1,1,motor_imagery_right_hand
1774525002.8329,32,4270.769,4285.128,4184.103,4172.308,4220.0,0.0,1,1,motor_imagery_right_hand
1774525002.8407,33,4258.974,4293.846,4187.692,4156.923,4230.256,0.0,1,1,motor_imagery_right_hand
1774525002.8485,34,4256.41,4280.513,4198.462,4167.179,4253.333,0.0,1,1,motor_imagery_right_hand
1774525002.8562,35,4264.615,4276.923,4203.59,4167.179,4265.641,0.0,1,1,motor_imagery_right_hand
1774525002.8639,36,4255.897,4288.205,4192.308,4151.795,4268.205,0.0,1,1,motor_imagery_right_hand
1774525002.8717,37,4243.077,4281.026,4187.692,4155.897,4285.641,0.0,1,1,motor_imagery_right_hand
1774525002.8795,38,4249.744,4258.462,4195.385,4167.179,4303.077,0.0,1,1,motor_imagery_right_hand
1774525002.8873,39,4261.026,4252.308,4195.897,4160.513,4304.103,0.0,1,1,motor_imagery_right_hand
1774525002.8951,40,4256.923,4280.513,4187.692,4148.718,4311.282,0.0,1,1,motor_imagery_right_hand
1774525002.9028,41,4254.872,4295.385,4183.077,4147.179,4322.564,0.0,1,1,motor_imagery_right_hand
1774525002.9106,42,4261.538,4272.308,4181.026,4152.308,4320.0,0.0,1,1,motor_imagery_right_hand
1774525002.9183,43,4265.641,4272.821,4179.487,4156.41,4324.103,0.0,1,1,motor_imagery_right_hand
1774525002.9261,44,4263.077,4293.333,4187.692,4160.0,4330.769,0.0,1,1,motor_imagery_right_hand
1774525002.9338,45,4257.949,4282.051,4197.436,4164.615,4322.051,0.0,1,1,motor_imagery_right_hand
1774525002.9417,46,4257.436,4257.436,4197.949,4167.179,4308.718,0.0,1,1,motor_imagery_right_hand
1774525002.9494,47,4261.026,4247.179,4200.513,4167.692,4306.154,0.0,1,1,motor_imagery_right_hand
1774525002.9572,48,4263.59,4260.513,4207.692,4158.462,4314.359,0.0,1,1,motor_imagery_right_hand
1774525002.9649,49,4257.949,4274.359,4196.923,4143.077,4303.077,0.0,1,1,motor_imagery_right_hand
1774525002.9726,50,4252.821,4258.974,4172.821,4142.564,4276.923,0.0,1,1,motor_imagery_right_hand
1774525002.9804,51,4252.308,4251.795,4160.0,4151.282,4277.436,0.0,1,1,motor_imagery_right_hand
1774525002.9881,52,4243.59,4275.897,4160.513,4146.154,4297.436,0.0,1,1,motor_imagery_right_hand
1774525002.996,53,4236.923,4290.256,4162.564,4140.0,4297.436,0.0,1,1,motor_imagery_right_hand
1774525003.0037,54,4247.692,4272.821,4164.615,4160.0,4285.128,0.0,1,1,motor_imagery_right_hand
1774525003.0115,55,4257.436,4263.59,4161.538,4173.846,4286.667,0.0,1,1,motor_imagery_right_hand
1774525003.0192,56,4247.692,4276.923,4151.795,4154.872,4295.385,0.0,1,1,motor_imagery_right_hand
1774525003.027,57,4240.0,4284.615,4151.282,4148.718,4302.564,0.0,1,1,motor_imagery_right_hand
1774525003.0348,58,4245.128,4271.282,4155.385,4160.513,4294.359,0.0,1,1,motor_imagery_right_hand
1774525003.0425,59,4242.564,4252.821,4153.333,4150.256,4271.795,0.0,1,1,motor_imagery_right_hand
1774525003.0503,60,4229.231,4252.308,4149.231,4132.821,4275.385,0.0,1,1,motor_imagery_right_hand
1774525003.0581,61,4224.615,4255.385,4151.282,4134.872,4300.513,0.0,1,1,motor_imagery_right_hand
1774525003.0658,62,4232.308,4258.462,4166.667,4156.41,4305.641,0.0,1,1,motor_imagery_right_hand
1774525003.0736,63,4241.538,4267.692,4183.59,4172.308,4293.846,0.0,1,1,motor_imagery_right_hand
1774525003.0813,64,4236.923,4260.513,4184.615,4146.667,4289.231,450.0,1,1,motor_imagery_right_hand
1774525003.0891,65,4221.026,4256.41,4171.282,4116.41,4286.667,450.0,1,1,motor_imagery_right_hand
1774525003.0968,66,4219.487,4262.051,4161.538,4131.795,4273.333,16218.0,1,1,motor_imagery_right_hand
1774525003.1047,67,4234.872,4264.615,4158.462,4154.872,4264.103,450.0,1,1,motor_imagery_right_hand
1774525003.1124,68,4244.103,4274.872,4165.641,4160.0,4269.744,16235.0,1,1,motor_imagery_right_hand
1774525003.1202,69,4238.462,4273.846,4171.282,4164.103,4268.718,450.0,1,1,motor_imagery_right_hand
1774525003.1279,70,4228.205,4257.436,4159.487,4163.077,4253.846,16205.0,1,1,motor_imagery_right_hand
1774525003.1357,71,4225.641,4272.308,4152.821,4155.385,4254.359,450.0,1,1,motor_imagery_right_hand
1774525003.1434,72,4235.385,4294.359,4162.564,4153.333,4282.051,450.0,1,1,motor_imagery_right_hand
1774525003.1512,73,4248.205,4267.692,4166.154,4151.795,4291.795,16175.0,1,1,motor_imagery_right_hand
1774525003.159,74,4248.205,4246.667,4164.615,4154.359,4273.333,450.0,1,1,motor_imagery_right_hand
1774525003.1667,75,4241.538,4273.846,4162.051,4157.949,4260.0,16209.0,1,1,motor_imagery_right_hand
1774525003.1745,76,4237.949,4285.641,4158.974,4157.949,4253.846,450.0,1,1,motor_imagery_right_hand
1774525003.1822,77,4240.513,4283.077,4161.538,4163.077,4246.667,450.0,1,1,motor_imagery_right_hand
1774525003.19,78,4243.077,4281.538,4171.282,4165.128,4239.487,450.0,1,1,motor_imagery_right_hand
1774525003.1977,79,4243.077,4263.077,4173.333,4170.256,4243.59,16209.0,1,1,motor_imagery_right_hand
1774525003.2056,80,4251.795,4257.436,4173.333,4177.436,4262.051,450.0,1,1,motor_imagery_right_hand
1774525003.2133,81,4264.103,4275.897,4183.077,4165.641,4270.256,450.0,1,1,motor_imagery_right_hand
1774525003.2211,82,4251.282,4278.974,4181.538,4151.282,4257.436,450.0,1,1,motor_imagery_right_hand
1774525003.2288,83,4227.692,4250.256,4177.436,4159.487,4244.615,16209.0,1,1,motor_imagery_right_hand
1774525003.2366,84,4228.205,4244.103,4188.718,4174.872,4248.718,450.0,1,1,motor_imagery_right_hand
1774525003.2443,85,4233.333,4276.41,4190.769,4171.795,4248.718,450.0,1,1,motor_imagery_right_hand
1774525003.2521,86,4221.026,4276.41,4173.333,4157.949,4226.667,450.0,1,1,motor_imagery_right_hand
1774525003.2599,87,4219.487,4242.564,4162.051,4157.949,4215.897,16209.0,1,1,motor_imagery_right_hand
1774525003.2677,88,4230.769,4243.077,4165.128,4162.564,4233.846,450.0,1,1,motor_imagery_right_hand
1774525003.2754,89,4232.821,4261.026,4167.179,4155.385,4247.179,450.0,1,1,motor_imagery_right_hand
1774525003.2831,90,4237.949,4254.359,4165.641,4152.308,4244.615,450.0,1,1,motor_imagery_right_hand
1774525003.2909,91,4240.513,4266.154,4163.59,4155.385,4250.256,16209.0,1,1,motor_imagery_right_hand
1774525003.2986,92,4229.231,4288.205,4164.615,4158.462,4268.205,450.0,1,1,motor_imagery_right_hand
1774525003.3064,93,4232.821,4262.051,4170.769,4162.051,4272.308,450.0,1,1,motor_imagery_right_hand
1774525003.3142,94,4246.154,4242.564,4178.974,4153.846,4264.615,450.0,1,1,motor_imagery_right_hand
1774525003.322,95,4247.692,4278.462,4189.231,4150.256,4266.154,16209.0,1,1,motor_imagery_right_hand
1774525003.3297,96,4263.077,4289.744,4200.513,4170.256,4276.923,450.0,1,1,motor_imagery_right_hand
1774525003.3375,97,4290.256,4260.0,4205.128,4175.385,4286.667,450.0,1,1,motor_imagery_right_hand
1774525003.3452,98,4283.59,4268.205,4200.0,4154.872,4285.641,450.0,1,1,motor_imagery_right_hand
1774525003.353,99,4258.462,4294.359,4187.179,4153.846,4280.513,16209.0,1,1,motor_imagery_right_hand
1774525003.3607,100,4254.359,4285.641,4172.821,4161.538,4270.256,450.0,1,1,motor_imagery_right_hand
1774525003.3686,101,4255.385,4265.641,4164.103,4155.897,4269.744,450.0,1,1,motor_imagery_right_hand
1774525003.3763,102,4254.359,4253.846,4161.026,4152.821,4280.0,450.0,1,1,motor_imagery_right_hand
1774525003.3841,103,4251.282,4251.282,4159.487,4155.897,4267.692,16209.0,1,1,motor_imagery_right_hand
1774525003.3918,104,4236.41,4270.256,4156.923,4162.051,4256.923,450.0,1,1,motor_imagery_right_hand
1774525003.3996,105,4223.59,4282.051,4155.385,4155.385,4271.282,450.0,1,1,motor_imagery_right_hand
1774525003.4073,106,4220.0,4265.641,4148.718,4133.333,4275.897,450.0,1,1,motor_imagery_right_hand
1774525003.4152,107,4218.974,4257.436,4147.179,4131.282,4257.949,16209.0,1,1,motor_imagery_right_hand
1774525003.4229,108,4226.154,4267.692,4157.436,4150.256,4255.385,450.0,1,1,motor_imagery_right_hand
1774525003.4307,109,4234.359,4267.692,4152.821,4162.051,4256.923,450.0,1,1,motor_imagery_right_hand
1774525003.4384,110,4227.692,4251.795,4144.103,4163.077,4238.974,450.0,1,1,motor_imagery_right_hand
1774525003.4461,111,4227.179,4244.615,4161.026,4163.077,4244.615,16209.0,1,1,motor_imagery_right_hand
1774525003.4539,112,4233.333,4265.128,4184.615,4166.667,4266.154,450.0,1,1,motor_imagery_right_hand
1774525003.4616,113,4226.667,4273.846,4184.615,4178.462,4262.564,450.0,1,1,motor_imagery_right_hand
1774525003.4695,114,4225.641,4243.59,4175.385,4178.462,4254.359,450.0,1,1,motor_imagery_right_hand
1774525003.4772,115,4238.974,4244.103,4180.0,4168.718,4265.128,16209.0,1,1,motor_imagery_right_hand
1774525003.485,116,4242.051,4289.231,4188.205,4174.872,4276.41,450.0,1,1,motor_imagery_right_hand
1774525003.4927,117,4233.846,4283.59,4186.154,4183.077,4274.872,450.0,1,1,motor_imagery_right_hand
1774525003.5005,118,4233.333,4244.615,4176.41,4177.436,4273.333,450.0,1,1,motor_imagery_right_hand
1774525003.5083,119,4236.923,4251.282,4168.718,4172.821,4270.769,16209.0,1,1,motor_imagery_right_hand
1774525003.516,120,4236.923,4276.923,4158.462,4176.923,4266.667,450.0,1,1,motor_imagery_right_hand
1774525003.5238,121,4234.872,4270.769,4149.744,4178.974,4269.231,450.0,1,1,motor_imagery_right_hand
1774525003.5316,122,4234.872,4251.795,4165.641,4174.359,4270.769,450.0,1,1,motor_imagery_right_hand
1774525003.5393,123,4239.487,4261.026,4182.564,4172.308,4254.872,16209.0,1,1,motor_imagery_right_hand
1774525003.5471,124,4241.026,4286.667,4178.462,4174.359,4238.462,450.0,1,1,motor_imagery_right_hand
1774525003.5548,125,4235.385,4283.077,4174.359,4169.744,4254.359,450.0,1,1,motor_imagery_right_hand
1774525003.5626,126,4238.462,4249.744,4184.103,4167.692,4271.795,450.0,1,1,motor_imagery_right_hand
1774525003.5703,127,4258.462,4256.41,4196.41,4176.923,4263.59,234.0,1,1,motor_imagery_right_hand
1774525003.5782,0,4267.179,4301.538,4194.872,4182.564,4255.897,450.0,1,1,motor_imagery_right_hand
1774525003.5859,1,4249.231,4293.333,4187.692,4177.949,4254.359,450.0,1,1,motor_imagery_right_hand
1774525003.5936,2,4230.256,4260.513,4188.718,4167.692,4248.205,16229.0,1,1,motor_imagery_right_hand
1774525003.6014,3,4233.846,4281.026,4187.179,4166.154,4249.744,450.0,1,1,motor_imagery_right_hand
1774525003.6092,4,4245.641,4302.051,4174.872,4178.974,4260.513,16240.0,1,1,motor_imagery_right_hand
1774525003.6169,5,4241.538,4266.667,4164.103,4180.513,4265.128,450.0,1,1,motor_imagery_right_hand
1774525003.6248,6,4230.256,4243.077,4165.128,4168.718,4265.128,16204.0,1,1,motor_imagery_right_hand
1774525003.6325,7,4231.282,4268.718,4171.282,4174.359,4265.641,450.0,1,1,motor_imagery_right_hand
1774525003.6403,8,4238.462,4292.821,4178.974,4186.667,4266.154,450.0,1,1,motor_imagery_right_hand
1774525003.648,9,4241.026,4290.256,4180.0,4182.051,4268.205,16183.0,1,1,motor_imagery_right_hand
1774525003.6558,10,4238.974,4270.769,4172.308,4174.359,4265.641,450.0,1,1,motor_imagery_right_hand
1774525003.6635,11,4238.974,4271.795,4169.231,4174.872,4266.154,16212.0,1,1,motor_imagery_right_hand
1774525003.6713,12,4238.974,4283.077,4170.769,4169.744,4264.103,450.0,1,1,motor_imagery_right_hand
1774525003.6791,13,4232.308,4261.026,4165.128,4158.462,4247.692,450.0,1,1,motor_imagery_right_hand
1774525003.6869,14,4229.744,4239.487,4160.513,4154.872,4241.026,450.0,1,1,motor_imagery_right_hand
1774525003.6946,15,4232.308,4255.897,4165.128,4163.59,4251.282,16212.0,1,1,motor_imagery_right_hand
1774525003.7023,16,4233.333,4279.487,4170.769,4171.795,4266.667,0.0,1,1,motor_imagery_right_hand
1774525003.7101,17,4230.256,4269.231,4167.692,4166.154,4268.205,0.0,1,1,motor_imagery_right_hand
1774525003.7178,18,4220.513,4258.974,4162.051,4165.128,4264.103,0.0,1,1,motor_imagery_right_hand
1774525003.7256,19,4215.385,4277.949,4160.0,4173.333,4275.385,0.0,1,1,motor_imagery_right_hand
1774525003.7334,20,4227.179,4287.692,4163.077,4162.051,4280.513,0.0,1,1,motor_imagery_right_hand
1774525003.7412,21,4230.256,4278.462,4168.718,4141.538,4260.0,0.0,1,1,motor_imagery_right_hand
1774525003.7489,22,4206.154,4275.385,4168.718,4140.0,4243.59,0.0,1,1,motor_imagery_right_hand
1774525003.7567,23,4187.179,4263.077,4161.026,4139.487,4250.769,0.0,1,1,motor_imagery_right_hand
1774525003.7644,24,4195.897,4249.231,4155.897,4135.385,4254.359,0.0,1,1,motor_imagery_right_hand
1774525003.7722,25,4217.436,4270.256,4166.154,4149.231,4251.795,0.0,1,1,motor_imagery_right_hand
1774525003.7799,26,4232.308,4285.128,4186.667,4169.744,4261.538,0.0,1,1,motor_imagery_right_hand
1774525003.7878,27,4233.333,4275.897,4197.436,4181.026,4267.692,0.0,1,1,motor_imagery_right_hand
1774525003.7955,28,4224.615,4281.538,4186.154,4180.513,4253.846,0.0,1,1,motor_imagery_right_hand
1774525003.8033,29,4225.128,4290.769,4173.846,4165.641,4235.385,0.0,1,1,motor_imagery_right_hand
1774525003.811,30,4236.923,4287.179,4182.051,4160.0,4236.41,0.0,1,1,motor_imagery_right_hand
1774525003.8188,31,4234.872,4282.051,4183.59,4168.205,4249.231,0.0,1,1,motor_imagery_right_hand
1774525003.8265,32,4229.744,4280.513,4175.897,4170.769,4251.282,0.0,1,1,motor_imagery_right_hand
1774525003.8342,33,4236.923,4284.103,4176.41,4170.256,4244.103,0.0,1,1,motor_imagery_right_hand
1774525003.8421,34,4228.205,4283.59,4172.308,4168.718,4231.795,0.0,1,1,motor_imagery_right_hand
1774525003.8499,35,4205.641,4278.974,4166.154,4169.231,4224.103,0.0,1,1,motor_imagery_right_hand
1774525003.8576,36,4213.846,4277.436,4177.949,4190.256,4243.077,0.0,1,1,motor_imagery_right_hand
1774525003.8654,37,4229.231,4256.41,4186.667,4190.769,4262.564,0.0,1,1,motor_imagery_right_hand
1774525003.8731,38,4223.077,4250.769,4180.513,4161.026,4262.564,0.0,1,1,motor_imagery_right_hand
1774525003.8808,39,4224.103,4283.077,4180.0,4157.949,4255.385,0.0,1,1,motor_imagery_right_hand
1774525003.8887,40,4226.154,4280.0,4179.487,4169.744,4242.051,0.0,1,1,motor_imagery_right_hand
1774525003.8964,41,4217.949,4248.205,4171.795,4164.615,4233.846,0.0,1,1,motor_imagery_right_hand
1774525003.9042,42,4219.487,4266.667,4167.692,4167.179,4235.385,0.0,1,1,motor_imagery_right_hand
1774525003.9119,43,4230.256,4300.513,4165.128,4172.821,4231.795,0.0,1,1,motor_imagery_right_hand
1774525003.9197,44,4238.974,4274.359,4165.641,4167.692,4221.026,0.0,1,1,motor_imagery_right_hand
1774525003.9274,45,4245.641,4249.744,4175.385,4169.744,4221.026,0.0,1,1,motor_imagery_right_hand
1774525003.9352,46,4248.718,4278.462,4183.59,4176.41,4234.872,0.0,1,1,motor_imagery_right_hand
1774525003.943,47,4246.154,4291.282,4188.205,4176.41,4246.667,0.0,1,1,motor_imagery_right_hand
1774525003.9508,48,4249.231,4274.872,4203.077,4182.564,4253.846,0.0,1,1,motor_imagery_right_hand
1774525003.9585,49,4251.282,4267.692,4204.615,4190.256,4247.692,0.0,1,1,motor_imagery_right_hand
1774525003.9663,50,4236.41,4271.795,4177.436,4182.051,4225.641,0.0,1,1,motor_imagery_right_hand
1774525003.974,51,4222.564,4268.718,4160.513,4170.256,4208.718,0.0,1,1,motor_imagery_right_hand
1774525003.9818,52,4226.667,4271.795,4168.205,4169.744,4209.744,0.0,1,1,motor_imagery_right_hand
1774525003.9895,53,4241.538,4284.103,4179.487,4172.821,4213.333,0.0,1,1,motor_imagery_right_hand
1774525003.9974,54,4255.897,4276.41,4182.564,4166.154,4204.103,0.0,1,1,motor_imagery_right_hand
1774525004.0051,55,4258.974,4279.487,4183.59,4165.128,4200.0,0.0,1,1,motor_imagery_right_hand
1774525004.0129,56,4254.359,4301.538,4179.487,4178.974,4202.564,0.0,1,1,motor_imagery_right_hand
1774525004.0206,57,4253.846,4306.667,4169.744,4177.949,4196.41,0.0,1,1,motor_imagery_right_hand
1774525004.0284,58,4253.333,4289.744,4155.897,4171.795,4193.846,0.0,1,1,motor_imagery_right_hand
1774525004.0361,59,4246.154,4274.359,4147.179,4180.513,4204.103,0.0,1,1,motor_imagery_right_hand
1774525004.0438,60,4238.462,4273.846,4148.205,4176.41,4213.333,0.0,1,1,motor_imagery_right_hand
1774525004.0517,61,4235.897,4271.282,4149.744,4160.513,4207.692,0.0,1,1,motor_imagery_right_hand
1774525004.0594,62,4235.897,4255.897,4155.385,4165.128,4206.154,0.0,1,1,motor_imagery_right_hand
1774525004.0672,63,4243.077,4251.795,4164.103,4182.051,4212.821,0.0,1,1,motor_imagery_right_hand
1774525004.0749,64,4241.538,4262.564,4163.077,4175.385,4203.077,450.0,1,1,motor_imagery_right_hand
1774525004.0827,65,4222.564,4262.051,4152.308,4162.564,4192.308,450.0,1,1,motor_imagery_right_hand
1774525004.0904,66,4217.949,4274.359,4149.231,4169.231,4206.667,16226.0,1,1,motor_imagery_right_hand
1774525004.0982,67,4223.59,4295.385,4152.308,4163.077,4216.41,450.0,1,1,motor_imagery_right_hand
1774525004.106,68,4212.821,4288.205,4151.282,4146.667,4204.103,16237.0,1,1,motor_imagery_right_hand
1774525004.1138,69,4202.564,4280.0,4157.949,4153.333,4197.949,450.0,1,1,motor_imagery_right_hand
1774525004.1215,70,4207.692,4273.333,4169.231,4164.615,4200.513,16194.0,1,1,motor_imagery_right_hand
1774525004.1293,71,4210.769,4256.41,4165.128,4148.205,4204.615,450.0,1,1,motor_imagery_right_hand
1774525004.137,72,4203.077,4261.026,4147.692,4134.872,4212.821,450.0,1,1,motor_imagery_right_hand
1774525004.1448,73,4208.718,4277.436,4153.333,4156.41,4222.051,16187.0,1,1,motor_imagery_right_hand
1774525004.1526,74,4229.231,4272.821,4174.359,4174.359,4240.513,450.0,1,1,motor_imagery_right_hand
1774525004.1605,75,4238.462,4265.641,4173.333,4163.077,4260.0,16214.0,1,1,motor_imagery_right_hand
1774525004.1684,76,4235.897,4267.692,4164.103,4153.846,4258.462,450.0,1,1,motor_imagery_right_hand
1774525004.1762,77,4236.923,4274.359,4166.154,4167.179,4244.103,450.0,1,1,motor_imagery_right_hand
1774525004.1841,78,4234.872,4262.051,4171.282,4169.744,4229.231,450.0,1,1,motor_imagery_right_hand
1774525004.1919,79,4215.385,4228.718,4166.667,4143.077,4207.179,16214.0,1,1,motor_imagery_right_hand
1774525004.1998,80,4200.0,4232.308,4161.538,4130.256,4193.846,450.0,1,1,motor_imagery_right_hand
1774525004.2077,81,4203.59,4271.282,4174.872,4149.231,4204.615,450.0,1,1,motor_imagery_right_hand
1774525004.2156,82,4211.282,4271.282,4183.077,4157.949,4210.256,450.0,1,1,motor_imagery_right_hand
1774525004.2234,83,4217.949,4240.0,4169.744,4146.154,4202.051,16214.0,1,1,motor_imagery_right_hand
1774525004.2312,84,4219.487,4240.0,4164.615,4147.692,4211.795,450.0,1,1,motor_imagery_right_hand
1774525004.2389,85,4220.0,4255.385,4174.359,4165.128,4234.359,450.0,1,1,motor_imagery_right_hand
1774525004.2468,86,4228.718,4256.41,4172.821,4173.333,4234.359,450.0,1,1,motor_imagery_right_hand
1774525004.2546,87,4234.872,4257.949,4169.744,4172.308,4225.128,16214.0,1,1,motor_imagery_right_hand
1774525004.2625,88,4225.128,4263.59,4172.308,4163.077,4228.718,450.0,1,1,motor_imagery_right_hand
1774525004.2702,89,4213.846,4274.359,4167.179,4154.359,4227.179,450.0,1,1,motor_imagery_right_hand
1774525004.2781,90,4213.846,4281.026,4163.59,4166.667,4218.462,450.0,1,1,motor_imagery_right_hand
1774525004.2859,91,4214.872,4269.231,4169.231,4171.795,4222.564,16214.0,1,1,motor_imagery_right_hand
1774525004.2938,92,4216.41,4268.718,4173.846,4154.359,4228.718,450.0,1,1,motor_imagery_right_hand
1774525004.3017,93,4224.103,4287.179,4168.205,4152.308,4230.256,450.0,1,1,motor_imagery_right_hand
1774525004.3095,94,4227.692,4267.692,4161.538,4171.795,4241.026,450.0,1,1,motor_imagery_right_hand
1774525004.3174,95,4224.615,4240.0,4160.0,4172.308,4251.282,16214.0,1,1,motor_imagery_right_hand
1774525004.3253,96,4226.154,4264.615,4158.974,4160.513,4250.256,450.0,1,1,motor_imagery_right_hand
1774525004.3331,97,4226.667,4278.974,4151.282,4152.821,4245.641,450.0,1,1,motor_imagery_right_hand
1774525004.341,98,4221.538,4261.026,4140.513,4146.154,4243.59,450.0,1,1,motor_imagery_right_hand
1774525004.3488,99,4224.103,4264.615,4144.615,4155.897,4250.256,16214.0,1,1,motor_imagery_right_hand
1774525004.3567,100,4230.256,4268.205,4160.513,4161.538,4254.872,450.0,1,1,motor_imagery_right_hand
1774525004.3646,101,4228.205,4252.308,4170.769,4148.205,4248.205,450.0,1,1,motor_imagery_right_hand
1774525004.3723,102,4225.128,4268.718,4173.846,4149.744,4250.769,450.0,1,1,motor_imagery_right_hand
1774525004.3801,103,4229.744,4290.256,4176.923,4167.179,4265.128,16214.0,1,1,motor_imagery_right_hand
1774525004.3878,104,4238.974,4261.026,4182.564,4166.154,4259.487,450.0,1,1,motor_imagery_right_hand
1774525004.3957,105,4243.077,4240.513,4183.59,4159.487,4253.333,450.0,1,1,motor_imagery_right_hand
1774525004.4035,106,4240.0,4253.333,4172.821,4161.538,4269.231,450.0,1,1,motor_imagery_right_hand
1774525004.4114,107,4236.41,4254.359,4157.436,4156.41,4270.769,16214.0,1,1,motor_imagery_right_hand
1774525004.4193,108,4234.359,4254.359,4153.846,4151.282,4247.179,450.0,1,1,motor_imagery_right_hand
1774525004.4272,109,4230.256,4268.205,4162.051,4148.718,4220.0,450.0,1,1,motor_imagery_right_hand
1774525004.435,110,4227.179,4256.923,4166.667,4147.692,4211.795,450.0,1,1,motor_imagery_right_hand
1774525004.4429,111,4232.308,4231.795,4167.179,4152.821,4222.051,16214.0,1,1,motor_imagery_right_hand
1774525004.4507,112,4229.744,4245.641,4170.256,4157.436,4221.026,450.0,1,1,motor_imagery_right_hand
1774525004.4586,113,4213.333,4264.103,4169.231,4152.821,4208.205,450.0,1,1,motor_imagery_right_hand
1774525004.4664,114,4221.538,4256.923,4164.615,4148.718,4222.564,450.0,1,1,motor_imagery_right_hand
1774525004.4744,115,4247.179,4251.282,4160.0,4162.564,4246.154,16214.0,1,1,motor_imagery_right_hand
1774525004.4822,116,4237.949,4253.333,4148.205,4165.641,4241.538,450.0,1,1,motor_imagery_right_hand
1774525004.4901,117,4215.897,4259.487,4140.513,4147.692,4224.103,450.0,1,1,motor_imagery_right_hand
1774525004.4979,118,4220.0,4267.179,4144.103,4146.154,4218.974,450.0,1,1,motor_imagery_right_hand
1774525004.5058,119,4223.077,4264.615,4142.051,4157.949,4228.718,16214.0,1,1,motor_imagery_right_hand
1774525004.5136,120,4222.051,4257.949,4140.513,4156.41,4245.641,450.0,1,1,motor_imagery_right_hand
1774525004.5215,121,4232.821,4253.333,4156.41,4158.462,4253.333,450.0,1,1,motor_imagery_right_hand
1774525004.5294,122,4235.897,4246.154,4170.769,4172.821,4243.59,450.0,1,1,motor_imagery_right_hand
1774525004.5371,123,4229.744,4256.923,4168.718,4166.667,4225.641,16214.0,1,1,motor_imagery_right_hand
1774525004.5449,124,4224.615,4268.718,4167.179,4155.897,4215.897,450.0,1,1,motor_imagery_right_hand
1774525004.5526,125,4220.513,4260.513,4168.205,4176.923,4218.974,450.0,1,1,motor_imagery_right_hand
1774525004.5604,126,4222.564,4265.128,4166.667,4187.179,4218.974,450.0,1,1,motor_imagery_right_hand
1774525004.5681,127,4233.846,4279.487,4167.179,4168.718,4226.667,234.0,1,1,motor_imagery_right_hand
1774525004.576,0,4243.077,4260.0,4170.256,4162.051,4249.231,450.0,1,1,motor_imagery_right_hand
1774525004.5837,1,4245.641,4240.513,4168.205,4175.897,4244.103,450.0,1,1,motor_imagery_right_hand
1774525004.5915,2,4245.128,4262.051,4163.59,4174.872,4215.385,16216.0,1,1,motor_imagery_right_hand
1774525004.5992,3,4247.692,4272.308,4162.051,4168.205,4216.41,450.0,1,1,motor_imagery_right_hand
1774525004.6071,4,4254.872,4251.282,4166.667,4179.487,4237.436,16245.0,1,1,motor_imagery_right_hand
1774525004.6149,5,4258.462,4254.359,4168.718,4181.538,4237.949,450.0,1,1,motor_imagery_right_hand
1774525004.6228,6,4253.846,4283.59,4171.282,4166.667,4227.179,16189.0,1,1,motor_imagery_right_hand
1774525004.6307,7,4254.872,4287.692,4185.128,4165.128,4230.769,450.0,1,1,motor_imagery_right_hand
1774525004.6386,8,4267.692,4267.179,4201.026,4185.128,4253.333,450.0,1,1,motor_imagery_right_hand
1774525004.6464,9,4272.821,4264.615,4201.538,4192.821,4278.462,16190.0,1,1,motor_imagery_right_hand
1774525004.6543,10,4267.692,4267.179,4188.718,4175.897,4275.897,450.0,1,1,motor_imagery_right_hand
1774525004.6621,11,4264.615,4267.692,4174.872,4169.231,4255.385,16220.0,1,1,motor_imagery_right_hand
1774525004.67,12,4263.59,4285.128,4155.385,4178.974,4255.385,450.0,1,1,motor_imagery_right_hand
1774525004.6778,13,4264.615,4280.0,4133.846,4177.436,4261.538,450.0,1,1,motor_imagery_right_hand
1774525004.6858,14,4264.103,4248.718,4132.821,4166.667,4248.718,450.0,1,1,motor_imagery_right_hand
1774525004.6936,15,4265.641,4252.308,4145.641,4171.795,4248.718,16220.0,1,1,motor_imagery_right_hand
1774525004.7015,16,4268.718,4268.718,4162.564,4180.513,4263.59,0.0,1,1,motor_imagery_right_hand
1774525004.7093,17,4263.59,4251.282,4181.026,4173.846,4258.462,0.0,1,1,motor_imagery_right_hand
1774525004.717,18,4256.923,4251.795,4182.051,4167.692,4253.846,0.0,1,1,motor_imagery_right_hand
1774525004.7248,19,4261.026,4270.769,4170.769,4168.718,4272.308,0.0,1,1,motor_imagery_right_hand
1774525004.7326,20,4268.205,4258.462,4172.821,4180.0,4275.897,0.0,1,1,motor_imagery_right_hand
1774525004.7404,21,4266.154,4249.744,4174.872,4188.205,4253.846,0.0,1,1,motor_imagery_right_hand
1774525004.7481,22,4251.795,4253.333,4156.41,4169.231,4248.205,0.0,1,1,motor_imagery_right_hand
1774525004.756,23,4234.872,4246.667,4145.128,4153.333,4262.051,0.0,1,1,motor_imagery_right_hand
1774525004.7638,24,4236.923,4258.462,4160.513,4168.205,4274.359,0.0,1,1,motor_imagery_right_hand
1774525004.7717,25,4253.333,4282.051,4176.923,4186.667,4282.051,0.0,1,1,motor_imagery_right_hand
1774525004.7795,26,4257.949,4270.769,4173.846,4181.538,4274.359,0.0,1,1,motor_imagery_right_hand
1774525004.7875,27,4256.41,4262.051,4174.359,4165.641,4258.974,0.0,1,1,motor_imagery_right_hand
1774525004.7953,28,4257.949,4271.795,4187.692,4172.821,4265.641,0.0,1,1,motor_imagery_right_hand
1774525004.8031,29,4264.103,4256.41,4189.744,4186.154,4271.795,0.0,1,1,motor_imagery_right_hand
1774525004.8108,30,4270.256,4251.795,4177.949,4172.821,4254.359,0.0,1,1,motor_imagery_right_hand
1774525004.8187,31,4265.128,4278.462,4168.205,4153.846,4246.154,0.0,1,1,motor_imagery_right_hand
1774525004.8265,32,4260.513,4278.974,4165.641,4165.641,4263.077,0.0,1,1,motor_imagery_right_hand
1774525004.8343,33,4273.846,4254.872,4167.692,4184.103,4280.0,0.0,1,1,motor_imagery_right_hand
1774525004.8421,34,4284.615,4262.564,4171.282,4180.0,4285.128,0.0,1,1,motor_imagery_right_hand
1774525004.85,35,4278.974,4281.026,4178.462,4174.872,4289.231,0.0,1,1,motor_imagery_right_hand
1774525004.8578,36,4275.385,4273.333,4184.103,4187.179,4302.564,0.0,1,1,motor_imagery_right_hand
1774525004.8657,37,4281.026,4276.41,4182.051,4196.41,4314.359,0.0,1,1,motor_imagery_right_hand
1774525004.8735,38,4280.0,4287.179,4171.795,4182.051,4306.154,0.0,1,1,motor_imagery_right_hand
1774525004.8814,39,4269.744,4272.308,4162.564,4160.0,4284.615,0.0,1,1,motor_imagery_right_hand
1774525004.8892,40,4260.0,4258.974,4161.026,4157.949,4266.154,0.0,1,1,motor_imagery_right_hand
1774525004.897,41,4260.0,4276.41,4165.128,4161.026,4260.0,0.0,1,1,motor_imagery_right_hand
1774525004.9048,42,4272.821,4285.128,4168.718,4156.923,4251.795,0.0,1,1,motor_imagery_right_hand
1774525004.9125,43,4289.231,4256.41,4180.0,4169.231,4241.538,0.0,1,1,motor_imagery_right_hand
1774525004.9204,44,4287.692,4256.923,4187.179,4188.205,4244.615,0.0,1,1,motor_imagery_right_hand
1774525004.9282,45,4270.256,4296.923,4168.205,4180.513,4251.282,0.0,1,1,motor_imagery_right_hand
1774525004.9361,46,4277.436,4298.462,4158.462,4171.795,4258.974,0.0,1,1,motor_imagery_right_hand
1774525004.944,47,4282.051,4255.385,4172.308,4186.154,4263.59,0.0,1,1,motor_imagery_right_hand
1774525004.9518,48,4227.179,4222.564,4140.513,4161.026,4217.436,0.0,1,1,motor_imagery_right_hand
1774525004.9595,49,4164.103,4218.974,4085.128,4100.0,4143.59,0.0,1,1,motor_imagery_right_hand
1774525004.9673,50,4169.744,4235.385,4100.513,4102.564,4149.744,0.0,1,1,motor_imagery_right_hand
1774525004.975,51,4229.231,4252.308,4157.436,4154.872,4224.615,0.0,1,1,motor_imagery_right_hand
1774525004.9829,52,4269.744,4259.487,4176.923,4171.795,4257.436,0.0,1,1,motor_imagery_right_hand
1774525004.9907,53,4251.795,4275.385,4164.103,4157.949,4236.923,0.0,1,1,motor_imagery_right_hand
1774525004.9986,54,4219.487,4277.436,4148.205,4142.564,4212.308,0.0,1,1,motor_imagery_right_hand
1774525005.0063,55,4236.41,4255.385,4149.231,4140.0,4209.231,0.0,1,1,motor_imagery_right_hand
1774525005.0142,56,4280.0,4264.615,4175.897,4165.128,4227.179,0.0,1,1,motor_imagery_right_hand
1774525005.022,57,4264.103,4274.872,4170.256,4164.615,4221.538,0.0,1,1,motor_imagery_right_hand
1774525005.0299,58,4214.872,4248.718,4130.769,4127.179,4194.359,0.0,1,1,motor_imagery_right_hand
1774525005.0377,59,4222.564,4250.769,4133.333,4134.872,4206.667,0.0,1,1,motor_imagery_right_hand
1774525005.0456,60,4249.231,4262.564,4151.795,4161.538,4223.59,0.0,1,1,motor_imagery_right_hand
1774525005.0536,61,4234.359,4236.41,4139.487,4145.641,4201.026,0.0,1,1,motor_imagery_right_hand
1774525005.0614,62,4229.231,4229.744,4132.308,4135.385,4204.103,0.0,1,1,motor_imagery_right_hand
1774525005.0692,63,4260.513,4250.769,4145.128,4152.308,4235.385,0.0,1,1,motor_imagery_right_hand
1774525005.0769,64,4264.615,4244.615,4140.0,4148.718,4222.051,450.0,1,1,motor_imagery_right_hand
1774525005.0847,65,4241.026,4237.436,4125.641,4132.821,4191.795,450.0,1,1,motor_imagery_right_hand
1774525005.0924,66,4229.744,4250.256,4123.59,4132.821,4186.667,16219.0,1,1,motor_imagery_right_hand
1774525005.1003,67,4227.692,4255.385,4128.718,4146.667,4188.205,450.0,1,1,motor_imagery_right_hand
1774525005.1082,68,4241.538,4267.692,4151.795,4166.154,4210.256,16249.0,1,1,motor_imagery_right_hand
